Time:250Hz,Epoch,Electrode,Attention,Meditation,Event Id,Event Date,Event Duration
0,0,30.87035663,0,0,,,
0.004,0,43.18011978,0,0,,,
0.008,0,41.29429921,0,0,,,
0.012,0,55.32647062,0,0,,,
0.016,0,78.4315952,0,0,,,
0.02,0,66.97703393,0,0,,,
0.024,0,57.09030137,0,0,,,
0.028,0,74.78020259,0,0,,,
0.032,1,49.91507079,0,0,,,
0.036,1,19.61668324,0,0,,,
0.04,1,50.49808873,0,0,,,
0.044,1,56.34932201,0,0,,,
0.048,1,34.53635288,0,0,,,
0.052,1,66.22814945,0,0,,,
0.056,1,63.60459346,0,0,,,
0.06,1,28.71515055,0,0,,,
0.064,2,31.81253395,0,0,,,
0.068,2,24.71614667,0,0,,,
0.072,2,-5.390955342,0,0,,,
0.076,2,4.255863208,0,0,,,
0.08,2,40.11772795,0,0,,,
0.084,2,48.1223076,0,0,,,
0.088,2,38.00039139,0,0,,,
0.092,2,23.8708727,0,0,,,
0.096,3,-12.83773203,0,0,,,
0.1,3,-39.54002979,0,0,,,
0.104,3,-17.18762316,0,0,,,
0.108,3,22.28947594,0,0,,,
0.112,3,43.6593449,0,0,,,
0.116,3,50.46629271,0,0,,,
0.12,3,32.93537172,0,0,,,
0.124,3,8.999953217,0,0,,,
0.128,4,26.23151997,0,0,,,
0.132,4,60.85862413,0,0,,,
0.136,4,66.09939743,0,0,,,
0.14,4,55.47751501,0,0,,,
0.144,4,52.24092637,0,0,,,
0.148,4,34.97423625,0,0,,,
0.152,4,27.8386073,0,0,,,
0.156,4,17.68715535,0,0,,,
0.16,5,-7.305389314,0,0,,,
0.164,5,-19.16016118,0,0,,,
0.168,5,-7.619055965,0,0,,,
0.172,5,-9.486576468,0,0,,,
0.176,5,-0.361695943,0,0,,,
0.18,5,47.16008837,0,0,,,
0.184,5,60.13353619,0,0,,,
0.188,5,42.50540036,0,0,,,
0.192,6,45.49779468,0,0,,,
0.196,6,50.65619438,0,0,,,
0.2,6,42.70996352,0,0,,,
0.204,6,19.46734313,0,0,,,
0.208,6,-4.107396427,0,0,,,
0.212,6,-20.08067929,0,0,,,
0.216,6,-44.79360036,0,0,,,
0.22,6,-50.32661103,0,0,,,
0.224,7,9.40501033,0,0,,,
0.228,7,95.32547058,0,0,,,
0.232,7,127.9115423,0,0,,,
0.236,7,117.5028988,0,0,,,
0.24,7,90.24050786,0,0,,,
0.244,7,82.00452283,0,0,,,
0.248,7,97.38298216,0,0,,,
0.252,7,142.2430199,0,0,,,
0.256,8,148.9462087,0,0,,,
0.26,8,93.87167215,0,0,,,
0.264,8,71.61270148,0,0,,,
0.268,8,73.27341316,0,0,,,
0.272,8,50.63118208,0,0,,,
0.276,8,37.21461782,0,0,,,
0.28,8,42.35002019,0,0,,,
0.284,8,17.00991997,0,0,,,
0.288,9,-11.95226749,0,0,,,
0.292,9,9.424148544,0,0,,,
0.296,9,23.74616262,0,0,,,
0.3,9,20.65365111,0,0,,,
0.304,9,13.78748517,0,0,,,
0.308,9,-11.64676224,0,0,,,
0.312,9,-12.64354387,0,0,,,
0.316,9,-30.74392589,0,0,,,
0.32,10,-58.29218536,0,0,,,
0.324,10,-36.57887418,0,0,,,
0.328,10,0.868052796,0,0,,,
0.332,10,23.653645,0,0,,,
0.336,10,40.75744833,0,0,,,
0.34,10,44.83498362,0,0,,,
0.344,10,36.20969619,0,0,,,
0.348,10,13.52431264,0,0,,,
0.352,11,22.09422311,0,0,,,
0.356,11,34.53562876,0,0,,,
0.36,11,-4.393346328,0,0,,,
0.364,11,-11.97036484,0,0,,,
0.368,11,9.673954673,0,0,,,
0.372,11,-29.20343819,0,0,,,
0.376,11,-34.57675023,0,0,,,
0.38,11,19.18986007,0,0,,,
0.384,12,27.69369027,0,0,,,
0.388,12,31.3403285,0,0,,,
0.392,12,43.40013707,0,0,,,
0.396,12,35.59498231,0,0,,,
0.4,12,34.8578715,0,0,,,
0.404,12,34.35301024,0,0,,,
0.408,12,38.82533531,0,0,,,
0.412,12,40.30839127,0,0,,,
0.416,13,3.39600366,0,0,,,
0.42,13,3.153383673,0,0,,,
0.424,13,14.76426067,0,0,,,
0.428,13,-1.705132023,0,0,,,
0.432,13,43.2829063,0,0,,,
0.436,13,83.8988431,0,0,,,
0.44,13,49.94751145,0,0,,,
0.444,13,49.0023866,0,0,,,
0.448,14,65.167,0,0,,,
0.452,14,44.77647423,0,0,,,
0.456,14,36.43641998,0,0,,,
0.46,14,52.10919543,0,0,,,
0.464,14,63.54362209,0,0,,,
0.468,14,71.43434189,0,0,,,
0.472,14,69.45901754,0,0,,,
0.476,14,57.67678639,0,0,,,
0.48,15,66.99439456,0,0,,,
0.484,15,70.42700484,0,0,,,
0.488,15,58.5016897,0,0,,,
0.492,15,53.95993582,0,0,,,
0.496,15,48.74166799,0,0,,,
0.5,15,49.02314904,0,0,,,
0.504,15,49.49787638,0,0,,,
0.508,15,39.48950185,0,0,,,
0.512,16,49.84062185,0,0,,,
0.516,16,67.82909347,0,0,,,
0.52,16,78.53328677,0,0,,,
0.524,16,54.67803941,0,0,,,
0.528,16,29.13089183,0,0,,,
0.532,16,53.87907173,0,0,,,
0.536,16,52.10042196,0,0,,,
0.54,16,14.42270454,0,0,,,
0.544,17,37.40279632,0,0,,,
0.548,17,57.94039802,0,0,,,
0.552,17,54.41995553,0,0,,,
0.556,17,69.05226482,0,0,,,
0.56,17,59.1108426,0,0,,,
0.564,17,41.05788802,0,0,,,
0.568,17,26.53588819,0,0,,,
0.572,17,34.6214641,0,0,,,
0.576,18,40.71991049,0,0,,,
0.58,18,11.88374125,0,0,,,
0.584,18,26.82376025,0,0,,,
0.588,18,53.3953757,0,0,,,
0.592,18,25.96359568,0,0,,,
0.596,18,43.89155264,0,0,,,
0.6,18,59.48900505,0,0,,,
0.604,18,15.24028841,0,0,,,
0.608,19,36.1192209,0,0,,,
0.612,19,78.35302803,0,0,,,
0.616,19,32.94585814,0,0,,,
0.62,19,-2.600371225,0,0,,,
0.624,19,15.88653149,0,0,,,
0.628,19,27.39317889,0,0,,,
0.632,19,33.38389299,0,0,,,
0.636,19,35.53950562,0,0,,,
0.64,20,3.845709784,0,0,,,
0.644,20,-10.20550912,0,0,,,
0.648,20,9.87356975,0,0,,,
0.652,20,9.48757661,0,0,,,
0.656,20,-3.963472188,0,0,,,
0.66,20,-0.491483081,0,0,,,
0.664,20,8.795689612,0,0,,,
0.668,20,-7.421511573,0,0,,,
0.672,21,-7.215942887,0,0,,,
0.676,21,5.28571227,0,0,,,
0.68,21,-1.649764409,0,0,,,
0.684,21,6.877181252,0,0,,,
0.688,21,9.158124432,0,0,,,
0.692,21,-24.38078302,0,0,,,
0.696,21,-9.263957807,0,0,,,
0.7,21,6.537413624,0,0,,,
0.704,22,-23.39601641,0,0,,,
0.708,22,-15.56839247,0,0,,,
0.712,22,-18.98541288,0,0,,,
0.716,22,-36.09106352,0,0,,,
0.72,22,-4.469092688,0,0,,,
0.724,22,23.56126614,0,0,,,
0.728,22,31.83782724,0,0,,,
0.732,22,29.61556685,0,0,,,
0.736,23,18.81518856,0,0,,,
0.74,23,6.317409497,0,0,,,
0.744,23,-11.75207309,0,0,,,
0.748,23,-6.54989206,0,0,,,
0.752,23,15.64013228,0,0,,,
0.756,23,14.70393795,0,0,,,
0.76,23,13.57563296,0,0,,,
0.764,23,34.94110617,0,0,,,
0.768,24,21.71459765,0,0,,,
0.772,24,7.995194285,0,0,,,
0.776,24,21.65564396,0,0,,,
0.78,24,5.925174036,0,0,,,
0.784,24,-3.487392002,0,0,,,
0.788,24,1.935478509,0,0,,,
0.792,24,-15.5862884,0,0,,,
0.796,24,-17.924105,0,0,,,
0.8,25,-11.78465094,0,0,,,
0.804,25,4.636101227,0,0,,,
0.808,25,33.42976557,0,0,,,
0.812,25,57.20851525,0,0,,,
0.816,25,70.41645212,0,0,,,
0.82,25,62.92548472,0,0,,,
0.824,25,56.98131778,0,0,,,
0.828,25,55.54954382,0,0,,,
0.832,26,28.36699081,0,0,,,
0.836,26,13.03137926,0,0,,,
0.84,26,31.11607996,0,0,,,
0.844,26,48.88026503,0,0,,,
0.848,26,45.74942539,0,0,,,
0.852,26,25.22690356,0,0,,,
0.856,26,21.19732603,0,0,,,
0.86,26,9.321072564,0,0,,,
0.864,27,4.210783891,0,0,,,
0.868,27,13.59773971,0,0,,,
0.872,27,1.606729955,0,0,,,
0.876,27,-4.674223872,0,0,,,
0.88,27,6.434439428,0,0,,,
0.884,27,-9.239589193,0,0,,,
0.888,27,-29.38458814,0,0,,,
0.892,27,-5.17573868,0,0,,,
0.896,28,39.59376639,0,0,,,
0.9,28,52.02435607,0,0,,,
0.904,28,27.54867603,0,0,,,
0.908,28,-9.989048099,0,0,,,
0.912,28,-4.781595905,0,0,,,
0.916,28,19.26582723,0,0,,,
0.92,28,11.09398685,0,0,,,
0.924,28,7.689156998,0,0,,,
0.928,29,1.879963489,0,0,,,
0.932,29,21.4521019,0,0,,,
0.936,29,62.21449752,0,0,,,
0.94,29,41.24515408,0,0,,,
0.944,29,-9.185583077,0,0,,,
0.948,29,1.377639971,0,0,,,
0.952,29,17.28439418,0,0,,,
0.956,29,-5.323036573,0,0,,,
0.96,30,-16.15842467,0,0,,,
0.964,30,-2.657110232,0,0,,,
0.968,30,5.303493335,0,0,,,
0.972,30,-6.714400264,0,0,,,
0.976,30,-15.28139222,0,0,,,
0.98,30,1.205252572,0,0,,,
0.984,30,15.72589827,0,0,,,
0.988,30,51.77314954,0,0,,,
0.992,31,80.63971035,0,0,,,
0.996,31,62.01786052,0,0,,,
1,31,50.46552886,0,0,,,
1.004,31,45.57581909,0,0,,,
1.008,31,35.04874773,0,0,,,
1.012,31,16.60110281,0,0,,,
1.016,31,-6.803965546,0,0,,,
1.02,31,1.089253544,0,0,,,
1.024,32,28.3387164,0,0,,,
1.028,32,25.12044743,0,0,,,
1.032,32,34.38963519,0,0,,,
1.036,32,51.23284144,0,0,,,
1.04,32,37.57714372,0,0,,,
1.044,32,33.40872938,0,0,,,
1.048,32,45.23952832,0,0,,,
1.052,32,47.98017675,0,0,,,
1.056,33,46.60674581,0,0,,,
1.06,33,73.16188134,0,0,,,
1.064,33,109.2869955,0,0,,,
1.068,33,75.61706184,0,0,,,
1.072,33,39.36692161,0,0,,,
1.076,33,59.02899025,0,0,,,
1.08,33,74.73158417,0,0,,,
1.084,33,87.33667724,0,0,,,
1.088,34,89.87387569,0,0,,,
1.092,34,52.92961132,0,0,,,
1.096,34,27.12110875,0,0,,,
1.1,34,43.17813929,0,0,,,
1.104,34,23.45457147,0,0,,,
1.108,34,-11.11601519,0,0,,,
1.112,34,24.88438956,0,0,,,
1.116,34,59.58900673,0,0,,,
1.12,35,55.41145149,0,0,,,
1.124,35,60.37740836,0,0,,,
1.128,35,62.08577585,0,0,,,
1.132,35,74.65923115,0,0,,,
1.136,35,87.57737233,0,0,,,
1.14,35,85.94232259,0,0,,,
1.144,35,96.43180703,0,0,,,
1.148,35,132.504144,0,0,,,
1.152,36,147.2210599,0,0,,,
1.156,36,118.588906,0,0,,,
1.16,36,92.76197708,0,0,,,
1.164,36,89.76172681,0,0,,,
1.168,36,52.14863703,0,0,,,
1.172,36,7.882492549,0,0,,,
1.176,36,20.55993747,0,0,,,
1.18,36,49.03372573,0,0,,,
1.184,37,66.67050657,0,0,,,
1.188,37,83.80541399,0,0,,,
1.192,37,85.71612156,0,0,,,
1.196,37,41.03446377,0,0,,,
1.2,37,6.139761317,0,0,,,
1.204,37,21.21999795,0,0,,,
1.208,37,24.30908342,0,0,,,
1.212,37,9.107800195,0,0,,,
1.216,38,31.81376738,0,0,,,
1.22,38,64.72979382,0,0,,,
1.224,38,70.17100472,0,0,,,
1.228,38,34.62748883,0,0,,,
1.232,38,12.48824572,0,0,,,
1.236,38,38.19092996,0,0,,,
1.24,38,52.3018341,0,0,,,
1.244,38,37.77884715,0,0,,,
1.248,39,25.07534166,0,0,,,
1.252,39,19.79035166,0,0,,,
1.256,39,19.77208057,0,0,,,
1.26,39,6.551185842,0,0,,,
1.264,39,6.02900208,0,0,,,
1.268,39,8.337024029,0,0,,,
1.272,39,0.586367931,0,0,,,
1.276,39,10.35639275,0,0,,,
1.28,40,29.36422357,0,0,,,
1.284,40,52.49428732,0,0,,,
1.288,40,52.64920674,0,0,,,
1.292,40,49.72124061,0,0,,,
1.296,40,66.35007202,0,0,,,
1.3,40,79.27465632,0,0,,,
1.304,40,81.16864749,0,0,,,
1.308,40,74.30962764,0,0,,,
1.312,41,82.53541325,0,0,,,
1.316,41,104.6266875,0,0,,,
1.32,41,87.99443225,0,0,,,
1.324,41,59.25285392,0,0,,,
1.328,41,51.49347642,0,0,,,
1.332,41,38.56512689,0,0,,,
1.336,41,45.62748568,0,0,,,
1.34,41,88.01494406,0,0,,,
1.344,42,68.58344068,0,0,,,
1.348,42,42.90656903,0,0,,,
1.352,42,86.47102095,0,0,,,
1.356,42,110.690028,0,0,,,
1.36,42,99.69419277,0,0,,,
1.364,42,75.78263972,0,0,,,
1.368,42,64.57491158,0,0,,,
1.372,42,66.75536622,0,0,,,
1.376,43,44.8558244,0,0,,,
1.38,43,33.91701731,0,0,,,
1.384,43,29.06061184,0,0,,,
1.388,43,17.8901271,0,0,,,
1.392,43,60.13378239,0,0,,,
1.396,43,116.4140135,0,0,,,
1.4,43,132.0461957,0,0,,,
1.404,43,106.1863684,0,0,,,
1.408,44,54.86561326,0,0,,,
1.412,44,32.97845622,0,0,,,
1.416,44,52.70252986,0,0,,,
1.42,44,59.51437904,0,0,,,
1.424,44,68.28912088,0,0,,,
1.428,44,87.91261395,0,0,,,
1.432,44,72.42000895,0,0,,,
1.436,44,40.5873429,0,0,,,
1.44,45,42.25610384,0,0,,,
1.444,45,64.57551457,0,0,,,
1.448,45,99.53041126,0,0,,,
1.452,45,101.1187028,0,0,,,
1.456,45,38.5392173,0,0,,,
1.46,45,-2.651011148,0,0,,,
1.464,45,12.17800586,0,0,,,
1.468,45,54.08776341,0,0,,,
1.472,46,84.73345095,0,0,,,
1.476,46,92.01237505,0,0,,,
1.48,46,90.7312027,0,0,,,
1.484,46,82.67928512,0,0,,,
1.488,46,86.43031287,0,0,,,
1.492,46,92.68197533,0,0,,,
1.496,46,65.43327882,0,0,,,
1.5,46,42.8796199,0,0,,,
1.504,47,61.68674184,0,0,,,
1.508,47,103.0287204,0,0,,,
1.512,47,90.21295096,0,0,,,
1.516,47,43.44919003,0,0,,,
1.52,47,56.49469377,0,0,,,
1.524,47,96.24609856,0,0,,,
1.528,47,97.14152285,0,0,,,
1.532,47,103.4449678,0,0,,,
1.536,48,125.1973944,0,0,,,
1.54,48,112.2786515,0,0,,,
1.544,48,93.60465156,0,0,,,
1.548,48,105.3929404,0,0,,,
1.552,48,106.9220607,0,0,,,
1.556,48,83.36726009,0,0,,,
1.56,48,92.22839286,0,0,,,
1.564,48,107.8354372,0,0,,,
1.568,49,88.8206603,0,0,,,
1.572,49,91.66971504,0,0,,,
1.576,49,107.7748233,0,0,,,
1.58,49,87.68169462,0,0,,,
1.584,49,72.94537078,0,0,,,
1.588,49,53.97656423,0,0,,,
1.592,49,26.90632995,0,0,,,
1.596,49,34.56302261,0,0,,,
1.6,50,59.75054895,0,0,,,
1.604,50,59.2219407,0,0,,,
1.608,50,49.1267126,0,0,,,
1.612,50,33.77201038,0,0,,,
1.616,50,26.88440853,0,0,,,
1.62,50,55.94046415,0,0,,,
1.624,50,97.65869929,0,0,,,
1.628,50,106.7764815,0,0,,,
1.632,51,91.13312917,0,0,,,
1.636,51,68.64449186,0,0,,,
1.64,51,40.36321857,0,0,,,
1.644,51,35.51957341,0,0,,,
1.648,51,37.38928261,0,0,,,
1.652,51,26.51128297,0,0,,,
1.656,51,53.32462295,0,0,,,
1.66,51,92.42278902,0,0,,,
1.664,52,83.55824005,0,0,,,
1.668,52,97.57443181,0,0,,,
1.672,52,113.8091764,0,0,,,
1.676,52,67.0929806,0,0,,,
1.68,52,40.15212159,0,0,,,
1.684,52,65.43310031,0,0,,,
1.688,52,55.86014607,0,0,,,
1.692,52,41.61785971,0,0,,,
1.696,53,75.07116534,0,0,,,
1.7,53,99.16870762,0,0,,,
1.704,53,88.6128513,0,0,,,
1.708,53,86.67738741,0,0,,,
1.712,53,74.38646126,0,0,,,
1.716,53,56.69986049,0,0,,,
1.72,53,80.66168442,0,0,,,
1.724,53,84.80450447,0,0,,,
1.728,54,45.94185625,0,0,,,
1.732,54,48.02426183,0,0,,,
1.736,54,82.65405909,0,0,,,
1.74,54,96.05444107,0,0,,,
1.744,54,108.5658895,0,0,,,
1.748,54,96.0643475,0,0,,,
1.752,54,59.4637524,0,0,,,
1.756,54,56.17885574,0,0,,,
1.76,55,67.39626359,0,0,,,
1.764,55,79.80357447,0,0,,,
1.768,55,114.3172405,0,0,,,
1.772,55,115.8397981,0,0,,,
1.776,55,90.72520006,0,0,,,
1.78,55,91.86323631,0,0,,,
1.784,55,92.525346,0,0,,,
1.788,55,89.28036593,0,0,,,
1.792,56,96.97737616,0,0,,,
1.796,56,78.26119335,0,0,,,
1.8,56,66.01053585,0,0,,,
1.804,56,78.99881303,0,0,,,
1.808,56,92.42325758,0,0,,,
1.812,56,79.93354776,0,0,,,
1.816,56,28.74834236,0,0,,,
1.82,56,-4.745307453,0,0,,,
1.824,57,25.83603569,0,0,,,
1.828,57,60.36521517,0,0,,,
1.832,57,29.82465869,0,0,,,
1.836,57,16.0339056,0,0,,,
1.84,57,48.60444934,0,0,,,
1.844,57,59.23610183,0,0,,,
1.848,57,75.68217734,0,0,,,
1.852,57,86.45397931,0,0,,,
1.856,58,43.18348684,0,0,,,
1.86,58,55.91555163,0,0,,,
1.864,58,121.2851996,0,0,,,
1.868,58,174.9009065,0,0,,,
1.872,58,232.1588758,0,0,,,
1.876,58,272.0589072,0,0,,,
1.88,58,316.2659374,0,0,,,
1.884,58,405.1742244,0,0,,,
1.888,59,465.3322271,0,0,,,
1.892,59,422.429635,0,0,,,
1.896,59,333.5003119,0,0,,,
1.9,59,287.286857,0,0,,,
1.904,59,258.0052979,0,0,,,
1.908,59,204.9792029,0,0,,,
1.912,59,157.8147732,0,0,,,
1.916,59,131.1695452,0,0,,,
1.92,60,101.8997146,0,0,,,
1.924,60,73.02924475,0,0,,,
1.928,60,45.11898367,0,0,,,
1.932,60,-15.32372601,0,0,,,
1.936,60,-52.79969493,0,0,,,
1.94,60,-68.40694265,0,0,,,
1.944,60,-117.5725441,0,0,,,
1.948,60,-168.1872476,0,0,,,
1.952,61,-163.2153236,0,0,,,
1.956,61,-130.0805523,0,0,,,
1.96,61,-102.691617,0,0,,,
1.964,61,-86.72146784,0,0,,,
1.968,61,-111.9716019,0,0,,,
1.972,61,-145.4395622,0,0,,,
1.976,61,-121.9446718,0,0,,,
1.98,61,-92.33940396,0,0,,,
1.984,62,-107.093181,0,0,,,
1.988,62,-131.9333393,0,0,,,
1.992,62,-136.7830817,0,0,,,
1.996,62,-122.8637611,0,0,,,
2,62,-105.5330637,0,0,,,
2.004,62,-79.0003652,0,0,,,
2.008,62,-69.55496533,0,0,,,
2.012,62,-77.55781626,0,0,,,
2.016,63,-68.71940711,0,0,,,
2.02,63,-60.78375357,0,0,,,
2.024,63,-67.91480976,0,0,,,
2.028,63,-82.81025538,0,0,,,
2.032,63,-82.80182654,0,0,,,
2.036,63,-29.96321443,0,0,,,
2.04,63,9.280686967,0,0,,,
2.044,63,-5.887452553,0,0,,,
2.048,64,-11.22283771,0,0,,,
2.052,64,6.478774556,0,0,,,
2.056,64,19.67850533,0,0,,,
2.06,64,39.86328221,0,0,,,
2.064,64,58.10858122,0,0,,,
2.068,64,69.85473674,0,0,,,
2.072,64,78.61384463,0,0,,,
2.076,64,77.74629209,0,0,,,
2.08,65,66.71833557,0,0,,,
2.084,65,63.51641474,0,0,,,
2.088,65,72.62480386,0,0,,,
2.092,65,66.31063818,0,0,,,
2.096,65,62.69562886,0,0,,,
2.1,65,62.55889203,0,0,,,
2.104,65,58.21953029,0,0,,,
2.108,65,68.93397095,0,0,,,
2.112,66,73.51432916,0,0,,,
2.116,66,59.85966309,0,0,,,
2.12,66,71.53165577,0,0,,,
2.124,66,80.06588748,0,0,,,
2.128,66,65.1515358,0,0,,,
2.132,66,61.24113475,0,0,,,
2.136,66,51.15181899,0,0,,,
2.14,66,35.33797045,0,0,,,
2.144,67,29.35487487,0,0,,,
2.148,67,20.1585662,0,0,,,
2.152,67,37.4393983,0,0,,,
2.156,67,69.95973738,0,0,,,
2.16,67,63.80758351,0,0,,,
2.164,67,1.782187116,0,0,,,
2.168,67,-47.71642954,0,0,,,
2.172,67,-26.6318534,0,0,,,
2.176,68,37.63777551,0,0,,,
2.18,68,70.42126923,0,0,,,
2.184,68,62.61079677,0,0,,,
2.188,68,47.89753297,0,0,,,
2.192,68,14.85922473,0,0,,,
2.196,68,18.65011802,0,0,,,
2.2,68,28.36669648,0,0,,,
2.204,68,-1.206291703,0,0,,,
2.208,69,-19.51751699,0,0,,,
2.212,69,-12.21835138,0,0,,,
2.216,69,-4.967991739,0,0,,,
2.22,69,17.25929118,0,0,,,
2.224,69,34.99290565,0,0,,,
2.228,69,4.799464159,0,0,,,
2.232,69,-20.33340077,0,0,,,
2.236,69,-9.056272731,0,0,,,
2.24,70,5.757698205,0,0,,,
2.244,70,11.9408951,0,0,,,
2.248,70,4.500573498,0,0,,,
2.252,70,24.80518909,0,0,,,
2.256,70,61.91931699,0,0,,,
2.26,70,71.34507666,0,0,,,
2.264,70,74.80731977,0,0,,,
2.268,70,66.04124443,0,0,,,
2.272,71,36.71650187,0,0,,,
2.276,71,26.33212468,0,0,,,
2.28,71,52.54524135,0,0,,,
2.284,71,92.5283426,0,0,,,
2.288,71,109.1824908,0,0,,,
2.292,71,92.15001715,0,0,,,
2.296,71,108.8732254,0,0,,,
2.3,71,125.7263605,0,0,,,
2.304,72,104.6665864,0,0,,,
2.308,72,114.8655444,0,0,,,
2.312,72,136.1663782,0,0,,,
2.316,72,104.1709284,0,0,,,
2.32,72,89.53190746,0,0,,,
2.324,72,108.6974599,0,0,,,
2.328,72,94.13167754,0,0,,,
2.332,72,56.94332617,0,0,,,
2.336,73,52.82447046,0,0,,,
2.34,73,68.73997372,0,0,,,
2.344,73,63.6017122,0,0,,,
2.348,73,50.61622353,0,0,,,
2.352,73,48.58912448,0,0,,,
2.356,73,38.45712929,0,0,,,
2.36,73,25.44586905,0,0,,,
2.364,73,38.70034209,0,0,,,
2.368,74,56.06415064,0,0,,,
2.372,74,68.67678643,0,0,,,
2.376,74,66.83234609,0,0,,,
2.38,74,69.3422879,0,0,,,
2.384,74,87.45969939,0,0,,,
2.388,74,84.23686003,0,0,,,
2.392,74,81.83364437,0,0,,,
2.396,74,100.0096464,0,0,,,
2.4,75,64.5294447,0,0,,,
2.404,75,21.8598399,0,0,,,
2.408,75,39.46081105,0,0,,,
2.412,75,37.52961637,0,0,,,
2.416,75,23.46055834,0,0,,,
2.42,75,54.73468383,0,0,,,
2.424,75,55.07174498,0,0,,,
2.428,75,44.89581598,0,0,,,
2.432,76,69.10574807,0,0,,,
2.436,76,68.41677102,0,0,,,
2.44,76,54.92679903,0,0,,,
2.444,76,56.69955879,0,0,,,
2.448,76,44.04142881,0,0,,,
2.452,76,23.69219013,0,0,,,
2.456,76,24.14440269,0,0,,,
2.46,76,46.49196875,0,0,,,
2.464,77,86.23062708,0,0,,,
2.468,77,87.60567268,0,0,,,
2.472,77,66.67753926,0,0,,,
2.476,77,64.21690926,0,0,,,
2.48,77,56.94931939,0,0,,,
2.484,77,40.01323266,0,0,,,
2.488,77,53.94913793,0,0,,,
2.492,77,83.46577271,0,0,,,
2.496,78,57.79450552,0,0,,,
2.5,78,24.21853488,0,0,,,
2.504,78,47.49850446,0,0,,,
2.508,78,60.08919125,0,0,,,
2.512,78,48.36319744,0,0,,,
2.516,78,60.8850112,0,0,,,
2.52,78,62.06283741,0,0,,,
2.524,78,30.24355746,0,0,,,
2.528,79,28.18161517,0,0,,,
2.532,79,56.37907705,0,0,,,
2.536,79,68.22075677,0,0,,,
2.54,79,59.52212072,0,0,,,
2.544,79,41.46316269,0,0,,,
2.548,79,25.13738202,0,0,,,
2.552,79,24.99026944,0,0,,,
2.556,79,56.6608229,0,0,,,
2.56,80,89.16522799,0,0,,,
2.564,80,67.33288322,0,0,,,
2.568,80,30.57267271,0,0,,,
2.572,80,73.47719297,0,0,,,
2.576,80,112.2407055,0,0,,,
2.58,80,71.89388316,0,0,,,
2.584,80,47.07582476,0,0,,,
2.588,80,65.61038342,0,0,,,
2.592,81,66.71688351,0,0,,,
2.596,81,67.50615291,0,0,,,
2.6,81,67.95687313,0,0,,,
2.604,81,48.12306256,0,0,,,
2.608,81,26.09127348,0,0,,,
2.612,81,28.03628668,0,0,,,
2.616,81,39.45965503,0,0,,,
2.62,81,22.23072171,0,0,,,
2.624,82,12.02630839,0,0,,,
2.628,82,41.3347472,0,0,,,
2.632,82,59.43399432,0,0,,,
2.636,82,49.1555138,0,0,,,
2.64,82,37.35398933,0,0,,,
2.644,82,35.90361491,0,0,,,
2.648,82,61.354709,0,0,,,
2.652,82,77.30295413,0,0,,,
2.656,83,94.56957612,0,0,,,
2.66,83,114.6221322,0,0,,,
2.664,83,76.82139263,0,0,,,
2.668,83,12.49792916,0,0,,,
2.672,83,10.87373268,0,0,,,
2.676,83,31.43295703,0,0,,,
2.68,83,39.43946338,0,0,,,
2.684,83,51.61730593,0,0,,,
2.688,84,53.10467803,0,0,,,
2.692,84,46.36519407,0,0,,,
2.696,84,47.83442125,0,0,,,
2.7,84,37.31210346,0,0,,,
2.704,84,29.65616797,0,0,,,
2.708,84,61.84249761,0,0,,,
2.712,84,67.3679244,0,0,,,
2.716,84,59.93040255,0,0,,,
2.72,85,108.6622703,0,0,,,
2.724,85,144.8618638,0,0,,,
2.728,85,122.940378,0,0,,,
2.732,85,116.2085825,0,0,,,
2.736,85,105.3505957,0,0,,,
2.74,85,59.6893188,0,0,,,
2.744,85,33.69399476,0,0,,,
2.748,85,37.86609983,0,0,,,
2.752,86,38.07560197,0,0,,,
2.756,86,51.25068178,0,0,,,
2.76,86,65.28335798,0,0,,,
2.764,86,40.51751448,0,0,,,
2.768,86,23.44969833,0,0,,,
2.772,86,40.64685592,0,0,,,
2.776,86,51.87865636,0,0,,,
2.78,86,44.95706124,0,0,,,
2.784,87,13.39283805,0,0,,,
2.788,87,19.34355505,0,0,,,
2.792,87,66.8831421,0,0,,,
2.796,87,63.41489214,0,0,,,
2.8,87,25.47122124,0,0,,,
2.804,87,10.50657396,0,0,,,
2.808,87,15.53317118,0,0,,,
2.812,87,19.87313712,0,0,,,
2.816,88,34.08853853,0,0,,,
2.82,88,38.96950312,0,0,,,
2.824,88,26.02337309,0,0,,,
2.828,88,39.14703508,0,0,,,
2.832,88,39.82547217,0,0,,,
2.836,88,8.805298809,0,0,,,
2.84,88,19.247315,0,0,,,
2.844,88,40.51355983,0,0,,,
2.848,89,72.80786883,0,0,,,
2.852,89,86.79873975,0,0,,,
2.856,89,28.76203403,0,0,,,
2.86,89,0.209523811,0,0,,,
2.864,89,40.57562708,0,0,,,
2.868,89,32.83608947,0,0,,,
2.872,89,13.31235365,0,0,,,
2.876,89,23.66092195,0,0,,,
2.88,90,-20.35984363,0,0,,,
2.884,90,-46.3745172,0,0,,,
2.888,90,1.037673552,0,0,,,
2.892,90,28.5761945,0,0,,,
2.896,90,26.0733535,0,0,,,
2.9,90,41.4270462,0,0,,,
2.904,90,33.95998891,0,0,,,
2.908,90,31.65962885,0,0,,,
2.912,91,62.04316081,0,0,,,
2.916,91,56.61451196,0,0,,,
2.92,91,42.91931344,0,0,,,
2.924,91,68.07322792,0,0,,,
2.928,91,68.03200173,0,0,,,
2.932,91,47.68758033,0,0,,,
2.936,91,32.18378111,0,0,,,
2.94,91,15.81965516,0,0,,,
2.944,92,17.8928149,0,0,,,
2.948,92,57.76717127,0,0,,,
2.952,92,95.80284462,0,0,,,
2.956,92,92.36737477,0,0,,,
2.96,92,69.89729826,0,0,,,
2.964,92,53.92623429,0,0,,,
2.968,92,38.26369756,0,0,,,
2.972,92,43.76284275,0,0,,,
2.976,93,49.24727713,0,0,,,
2.98,93,31.58801965,0,0,,,
2.984,93,11.91020326,0,0,,,
2.988,93,-7.29276992,0,0,,,
2.992,93,20.83768306,0,0,,,
2.996,93,46.08949004,0,0,,,
3,93,18.76293161,0,0,,,
3.004,93,3.258065152,0,0,,,
3.008,94,14.48411462,0,0,,,
3.012,94,18.17814738,0,0,,,
3.016,94,10.56572688,0,0,,,
3.02,94,-6.642893054,0,0,,,
3.024,94,-6.219117509,0,0,,,
3.028,94,12.58917244,0,0,,,
3.032,94,37.3149973,0,0,,,
3.036,94,52.69385974,0,0,,,
3.04,95,38.07534291,0,0,,,
3.044,95,23.72051737,0,0,,,
3.048,95,40.17050386,0,0,,,
3.052,95,48.25311919,0,0,,,
3.056,95,27.92378077,0,0,,,
3.06,95,16.13947108,0,0,,,
3.064,95,21.31839406,0,0,,,
3.068,95,20.68136958,0,0,,,
3.072,96,18.32544593,0,0,,,
3.076,96,26.85752609,0,0,,,
3.08,96,51.49948029,0,0,,,
3.084,96,50.67165545,0,0,,,
3.088,96,12.46810419,0,0,,,
3.092,96,0.175874067,0,0,,,
3.096,96,-8.985729256,0,0,,,
3.1,96,-5.906792627,0,0,,,
3.104,97,5.178477547,0,0,,,
3.108,97,0.707008515,0,0,,,
3.112,97,9.853738563,0,0,,,
3.116,97,6.703545409,0,0,,,
3.12,97,-17.23650329,0,0,,,
3.124,97,-9.347289854,0,0,,,
3.128,97,1.695238557,0,0,,,
3.132,97,-8.380090446,0,0,,,
3.136,98,-22.03129931,0,0,,,
3.14,98,-47.92838158,0,0,,,
3.144,98,-68.4754625,0,0,,,
3.148,98,-71.85918955,0,0,,,
3.152,98,-74.09562424,0,0,,,
3.156,98,-48.18555092,0,0,,,
3.16,98,-5.935651474,0,0,,,
3.164,98,1.610395972,0,0,,,
3.168,99,3.041723949,0,0,,,
3.172,99,12.64205204,0,0,,,
3.176,99,1.282853416,0,0,,,
3.18,99,-13.6593769,0,0,,,
3.184,99,6.684329595,0,0,,,
3.188,99,45.67288733,0,0,,,
3.192,99,84.52184116,0,0,,,
3.196,99,108.5168177,0,0,,,
3.2,100,102.6382573,0,0,,,
3.204,100,59.12633065,0,0,,,
3.208,100,21.35119735,0,0,,,
3.212,100,36.24407768,0,0,,,
3.216,100,70.67091574,0,0,,,
3.22,100,88.69025929,0,0,,,
3.224,100,107.276017,0,0,,,
3.228,100,107.4939877,0,0,,,
3.232,101,101.4075889,0,0,,,
3.236,101,93.48943843,0,0,,,
3.24,101,92.0890311,0,0,,,
3.244,101,92.96495929,0,0,,,
3.248,101,62.7575003,0,0,,,
3.252,101,66.43127682,0,0,,,
3.256,101,111.1197909,0,0,,,
3.26,101,135.5965252,0,0,,,
3.264,102,134.6525876,0,0,,,
3.268,102,112.5511332,0,0,,,
3.272,102,63.92575438,0,0,,,
3.276,102,44.261173,0,0,,,
3.28,102,75.774462,0,0,,,
3.284,102,91.01684147,0,0,,,
3.288,102,50.99907204,0,0,,,
3.292,102,18.73368249,0,0,,,
3.296,103,22.70138688,0,0,,,
3.3,103,16.85761973,0,0,,,
3.304,103,16.48692269,0,0,,,
3.308,103,42.75894582,0,0,,,
3.312,103,41.07413092,0,0,,,
3.316,103,30.96668799,0,0,,,
3.32,103,30.86084468,0,0,,,
3.324,103,28.03149683,0,0,,,
3.328,104,48.20961065,0,0,,,
3.332,104,94.53897043,0,0,,,
3.336,104,115.929031,0,0,,,
3.34,104,106.8970581,0,0,,,
3.344,104,98.2661626,0,0,,,
3.348,104,84.38001475,0,0,,,
3.352,104,71.45508987,0,0,,,
3.356,104,53.35562128,0,0,,,
3.36,105,87.70210475,0,0,,,
3.364,105,170.0437767,0,0,,,
3.368,105,187.2585104,0,0,,,
3.372,105,157.594991,0,0,,,
3.376,105,135.4274962,0,0,,,
3.38,105,87.92846868,0,0,,,
3.384,105,67.84364692,0,0,,,
3.388,105,134.2241667,0,0,,,
3.392,106,234.5178956,0,0,,,
3.396,106,305.8498974,0,0,,,
3.4,106,377.0515335,0,0,,,
3.404,106,457.9615312,0,0,,,
3.408,106,538.2036258,0,0,,,
3.412,106,585.7957533,0,0,,,
3.416,106,543.8675842,0,0,,,
3.42,106,452.6681377,0,0,,,
3.424,107,364.371908,0,0,,,
3.428,107,279.5646587,0,0,,,
3.432,107,218.7793553,0,0,,,
3.436,107,190.8059084,0,0,,,
3.44,107,155.0425322,0,0,,,
3.444,107,118.1541611,0,0,,,
3.448,107,95.14050986,0,0,,,
3.452,107,42.69157615,0,0,,,
3.456,108,-33.16330738,0,0,,,
3.46,108,-63.28207854,0,0,,,
3.464,108,-68.06629339,0,0,,,
3.468,108,-97.57619327,0,0,,,
3.472,108,-146.1949573,0,0,,,
3.476,108,-186.1243247,0,0,,,
3.48,108,-189.3453482,0,0,,,
3.484,108,-163.9335276,0,0,,,
3.488,109,-168.2652481,0,0,,,
3.492,109,-170.9803406,0,0,,,
3.496,109,-145.9179403,0,0,,,
3.5,109,-132.9955008,0,0,,,
3.504,109,-130.9246851,0,0,,,
3.508,109,-122.2573797,0,0,,,
3.512,109,-125.5916914,0,0,,,
3.516,109,-141.7235385,0,0,,,
3.52,110,-127.8585002,0,0,,,
3.524,110,-105.2156695,0,0,,,
3.528,110,-98.22417993,0,0,,,
3.532,110,-78.29189072,0,0,,,
3.536,110,-58.24283222,0,0,,,
3.54,110,-46.28651521,0,0,,,
3.544,110,-20.01623495,0,0,,,
3.548,110,-38.48588075,0,0,,,
3.552,111,-71.16720797,0,0,,,
3.556,111,-50.02551234,0,0,,,
3.56,111,-20.59489591,0,0,,,
3.564,111,-1.71174851,0,0,,,
3.568,111,-6.232595463,0,0,,,
3.572,111,-44.94944252,0,0,,,
3.576,111,-41.16944752,0,0,,,
3.58,111,-6.146444568,0,0,,,
3.584,112,7.538408285,0,0,,,
3.588,112,18.41423918,0,0,,,
3.592,112,35.67601643,0,0,,,
3.596,112,28.81769351,0,0,,,
3.6,112,20.55775523,0,0,,,
3.604,112,34.76222676,0,0,,,
3.608,112,30.78443949,0,0,,,
3.612,112,15.04253349,0,0,,,
3.616,113,7.787538276,0,0,,,
3.62,113,16.92247088,0,0,,,
3.624,113,33.90683441,0,0,,,
3.628,113,53.62966497,0,0,,,
3.632,113,48.85768063,0,0,,,
3.636,113,26.96284219,0,0,,,
3.64,113,53.30746253,0,0,,,
3.644,113,94.15945238,0,0,,,
3.648,114,70.00021086,0,0,,,
3.652,114,32.11791224,0,0,,,
3.656,114,38.81209747,0,0,,,
3.66,114,66.82064173,0,0,,,
3.664,114,102.2564814,0,0,,,
3.668,114,128.8652811,0,0,,,
3.672,114,106.7307264,0,0,,,
3.676,114,80.38192247,0,0,,,
3.68,115,86.73955798,0,0,,,
3.684,115,95.00133349,0,0,,,
3.688,115,73.51391405,0,0,,,
3.692,115,46.89915925,0,0,,,
3.696,115,47.29458043,0,0,,,
3.7,115,76.07562907,0,0,,,
3.704,115,104.3440182,0,0,,,
3.708,115,81.70870001,0,0,,,
3.712,116,59.44396666,0,0,,,
3.716,116,75.75048683,0,0,,,
3.72,116,109.1579965,0,0,,,
3.724,116,109.542139,0,0,,,
3.728,116,97.95699639,0,0,,,
3.732,116,122.7822482,0,0,,,
3.736,116,141.6732058,0,0,,,
3.74,116,123.6718546,0,0,,,
3.744,117,98.8776944,0,0,,,
3.748,117,72.77562788,0,0,,,
3.752,117,38.76843291,0,0,,,
3.756,117,40.9307111,0,0,,,
3.76,117,74.98990927,0,0,,,
3.764,117,77.53732458,0,0,,,
3.768,117,62.55591241,0,0,,,
3.772,117,62.8177961,0,0,,,
3.776,118,81.47442919,0,0,,,
3.78,118,98.10178247,0,0,,,
3.784,118,77.46461197,0,0,,,
3.788,118,46.39828774,0,0,,,
3.792,118,58.34563132,0,0,,,
3.796,118,72.99459952,0,0,,,
3.8,118,48.56612524,0,0,,,
3.804,118,24.94896181,0,0,,,
3.808,119,44.09313443,0,0,,,
3.812,119,80.8414498,0,0,,,
3.816,119,87.28547021,0,0,,,
3.82,119,80.45437609,0,0,,,
3.824,119,56.37989269,0,0,,,
3.828,119,44.05026385,0,0,,,
3.832,119,33.16621377,0,0,,,
3.836,119,15.77737245,0,0,,,
3.84,120,35.54260775,0,0,,,
3.844,120,65.61482131,0,0,,,
3.848,120,54.42111236,0,0,,,
3.852,120,28.33739477,0,0,,,
3.856,120,12.1600045,0,0,,,
3.86,120,28.65497844,0,0,,,
3.864,120,83.26346948,0,0,,,
3.868,120,102.9281772,0,0,,,
3.872,121,75.15724035,0,0,,,
3.876,121,47.68554822,0,0,,,
3.88,121,33.20636442,0,0,,,
3.884,121,31.21013751,0,0,,,
3.888,121,41.9040929,0,0,,,
3.892,121,53.5476672,0,0,,,
3.896,121,58.45850185,0,0,,,
3.9,121,32.48836076,0,0,,,
3.904,122,10.20508844,0,0,,,
3.908,122,31.75953298,0,0,,,
3.912,122,52.25981633,0,0,,,
3.916,122,40.95604448,0,0,,,
3.92,122,40.45305944,0,0,,,
3.924,122,46.10070042,0,0,,,
3.928,122,31.27422992,0,0,,,
3.932,122,38.98599794,0,0,,,
3.936,123,79.68758881,0,0,,,
3.94,123,76.13115746,0,0,,,
3.944,123,55.28291999,0,0,,,
3.948,123,66.30523674,0,0,,,
3.952,123,83.79607794,0,0,,,
3.956,123,72.91481989,0,0,,,
3.96,123,42.21428405,0,0,,,
3.964,123,40.77735733,0,0,,,
3.968,124,33.09611072,0,0,,,
3.972,124,14.10401825,0,0,,,
3.976,124,26.16572318,0,0,,,
3.98,124,53.5497266,0,0,,,
3.984,124,64.04437399,0,0,,,
3.988,124,47.5264008,0,0,,,
3.992,124,44.76226689,0,0,,,
3.996,124,58.97695114,0,0,,,
4,125,33.99025886,0,0,,,
4.004,125,15.68412952,0,0,,,
4.008,125,35.07258226,0,0,,,
4.012,125,60.29708661,0,0,,,
4.016,125,60.06715876,0,0,,,
4.02,125,52.56579239,0,0,,,
4.024,125,53.00834229,0,0,,,
4.028,125,59.96291819,0,0,,,
4.032,126,63.68101187,0,0,,,
4.036,126,24.06282315,0,0,,,
4.04,126,-19.56542698,0,0,,,
4.044,126,4.381095557,0,0,,,
4.048,126,63.98830872,0,0,,,
4.052,126,89.60238079,0,0,,,
4.056,126,73.52259141,0,0,,,
4.06,126,77.50920571,0,0,,,
4.064,127,101.2087149,0,0,,,
4.068,127,102.595106,0,0,,,
4.072,127,89.00624188,0,0,,,
4.076,127,45.18712211,0,0,,,
4.08,127,9.693315058,0,0,,,
4.084,127,23.15325074,0,0,,,
4.088,127,31.80606111,0,0,,,
4.092,127,3.313461265,0,0,,,
4.096,128,-1.227440086,0,0,,,
4.1,128,5.932001612,0,0,,,
4.104,128,0.104120733,0,0,,,
4.108,128,12.31053819,0,0,,,
4.112,128,21.88647244,0,0,,,
4.116,128,22.88998592,0,0,,,
4.12,128,35.90906753,0,0,,,
4.124,128,28.62261947,0,0,,,
4.128,129,25.89302659,0,0,,,
4.132,129,46.19473853,0,0,,,
4.136,129,56.58430998,0,0,,,
4.14,129,56.93899795,0,0,,,
4.144,129,63.80183119,0,0,,,
4.148,129,63.13857955,0,0,,,
4.152,129,62.85165385,0,0,,,
4.156,129,60.64964723,0,0,,,
4.16,130,33.01296814,0,0,,,
4.164,130,28.91407087,0,0,,,
4.168,130,25.86025461,0,0,,,
4.172,130,-14.58033512,0,0,,,
4.176,130,-56.31606653,0,0,,,
4.18,130,-46.70269486,0,0,,,
4.184,130,-17.9634168,0,0,,,
4.188,130,-17.58312138,0,0,,,
4.192,131,-17.36865095,0,0,,,
4.196,131,15.44137167,0,0,,,
4.2,131,43.56930594,0,0,,,
4.204,131,54.26734185,0,0,,,
4.208,131,56.97755121,0,0,,,
4.212,131,39.93460658,0,0,,,
4.216,131,17.668942,0,0,,,
4.22,131,10.50136084,0,0,,,
4.224,132,29.97462804,0,0,,,
4.228,132,30.31698875,0,0,,,
4.232,132,-24.28235852,0,0,,,
4.236,132,-35.94166325,0,0,,,
4.24,132,13.73586947,0,0,,,
4.244,132,24.63709087,0,0,,,
4.248,132,20.31564451,0,0,,,
4.252,132,16.86334696,0,0,,,
4.256,133,-11.50492972,0,0,,,
4.26,133,-11.22444099,0,0,,,
4.264,133,27.56781466,0,0,,,
4.268,133,24.31145075,0,0,,,
4.272,133,-14.2844876,0,0,,,
4.276,133,-15.03469899,0,0,,,
4.28,133,3.934381067,0,0,,,
4.284,133,-15.00716471,0,0,,,
4.288,134,-37.964474,0,0,,,
4.292,134,-30.44504933,0,0,,,
4.296,134,-2.432556059,0,0,,,
4.3,134,-18.39374797,0,0,,,
4.304,134,-54.62302945,0,0,,,
4.308,134,-62.14468741,0,0,,,
4.312,134,-79.80463422,0,0,,,
4.316,134,-84.78743472,0,0,,,
4.32,135,-47.08775876,0,0,,,
4.324,135,-18.55170859,0,0,,,
4.328,135,-15.66801615,0,0,,,
4.332,135,12.04296655,0,0,,,
4.336,135,33.82729468,0,0,,,
4.34,135,16.3485756,0,0,,,
4.344,135,14.25153075,0,0,,,
4.348,135,47.40236781,0,0,,,
4.352,136,39.42792938,0,0,,,
4.356,136,6.942745769,0,0,,,
4.36,136,1.540332148,0,0,,,
4.364,136,4.233773885,0,0,,,
4.368,136,21.57218138,0,0,,,
4.372,136,51.81953714,0,0,,,
4.376,136,46.93814216,0,0,,,
4.38,136,25.589888,0,0,,,
4.384,137,22.29436114,0,0,,,
4.388,137,29.31015306,0,0,,,
4.392,137,38.41383904,0,0,,,
4.396,137,45.37741402,0,0,,,
4.4,137,49.39123217,0,0,,,
4.404,137,80.37619832,0,0,,,
4.408,137,97.83399533,0,0,,,
4.412,137,83.79884331,0,0,,,
4.416,138,85.93176226,0,0,,,
4.42,138,91.87798204,0,0,,,
4.424,138,106.6612382,0,0,,,
4.428,138,114.1415474,0,0,,,
4.432,138,100.0552155,0,0,,,
4.436,138,81.29784007,0,0,,,
4.44,138,76.81621622,0,0,,,
4.444,138,102.3714557,0,0,,,
4.448,139,129.1911359,0,0,,,
4.452,139,122.3694006,0,0,,,
4.456,139,113.7657507,0,0,,,
4.46,139,77.94153449,0,0,,,
4.464,139,22.20844045,0,0,,,
4.468,139,31.54065443,0,0,,,
4.472,139,90.09546379,0,0,,,
4.476,139,111.0333269,0,0,,,
4.48,140,117.6270712,0,0,,,
4.484,140,163.0568173,0,0,,,
4.488,140,165.5578356,0,0,,,
4.492,140,127.7503358,0,0,,,
4.496,140,143.4669548,0,0,,,
4.5,140,158.2704618,0,0,,,
4.504,140,146.5303629,0,0,,,
4.508,140,148.4679489,0,0,,,
4.512,141,149.5010725,0,0,,,
4.516,141,138.599128,0,0,,,
4.52,141,107.4005931,0,0,,,
4.524,141,74.34629814,0,0,,,
4.528,141,56.23015191,0,0,,,
4.532,141,60.04255541,0,0,,,
4.536,141,72.1933554,0,0,,,
4.54,141,75.59946613,0,0,,,
4.544,142,62.07820315,0,0,,,
4.548,142,46.03717238,0,0,,,
4.552,142,41.82147349,0,0,,,
4.556,142,50.19108459,0,0,,,
4.56,142,54.47569848,0,0,,,
4.564,142,51.46220566,0,0,,,
4.568,142,42.03707789,0,0,,,
4.572,142,37.11983115,0,0,,,
4.576,143,34.66095555,0,0,,,
4.58,143,40.33247217,0,0,,,
4.584,143,53.3532737,0,0,,,
4.588,143,56.26618878,0,0,,,
4.592,143,55.75094066,0,0,,,
4.596,143,33.24249402,0,0,,,
4.6,143,14.48188601,0,0,,,
4.604,143,19.62768086,0,0,,,
4.608,144,13.79511536,0,0,,,
4.612,144,26.73892318,0,0,,,
4.616,144,49.24465411,0,0,,,
4.62,144,24.05113654,0,0,,,
4.624,144,5.900806465,0,0,,,
4.628,144,7.120422462,0,0,,,
4.632,144,27.77868581,0,0,,,
4.636,144,52.63391037,0,0,,,
4.64,145,22.05271618,0,0,,,
4.644,145,-3.533616353,0,0,,,
4.648,145,37.36155052,0,0,,,
4.652,145,54.73056525,0,0,,,
4.656,145,25.47125435,0,0,,,
4.66,145,20.50586269,0,0,,,
4.664,145,32.63921615,0,0,,,
4.668,145,27.89197335,0,0,,,
4.672,146,18.45294231,0,0,,,
4.676,146,21.45870953,0,0,,,
4.68,146,31.49565043,0,0,,,
4.684,146,23.74423998,0,0,,,
4.688,146,45.39205579,0,0,,,
4.692,146,88.99029289,0,0,,,
4.696,146,87.81381842,0,0,,,
4.7,146,74.87608518,0,0,,,
4.704,147,62.15478261,0,0,,,
4.708,147,53.9012579,0,0,,,
4.712,147,35.25455331,0,0,,,
4.716,147,28.31045622,0,0,,,
4.72,147,67.09820763,0,0,,,
4.724,147,88.67528247,0,0,,,
4.728,147,60.75901961,0,0,,,
4.732,147,63.0485457,0,0,,,
4.736,148,92.98647196,0,0,,,
4.74,148,89.02998694,0,0,,,
4.744,148,77.36139654,0,0,,,
4.748,148,76.91933043,0,0,,,
4.752,148,49.126519,0,0,,,
4.756,148,-10.22577554,0,0,,,
4.76,148,-36.52191538,0,0,,,
4.764,148,28.27606216,0,0,,,
4.768,149,82.10521761,0,0,,,
4.772,149,68.31158208,0,0,,,
4.776,149,56.60776696,0,0,,,
4.78,149,49.96810039,0,0,,,
4.784,149,57.51494619,0,0,,,
4.788,149,64.41358232,0,0,,,
4.792,149,35.36137119,0,0,,,
4.796,149,6.09771003,0,0,,,
4.8,150,16.84054992,0,0,,,
4.804,150,47.47364963,0,0,,,
4.808,150,77.50786989,0,0,,,
4.812,150,101.873743,0,0,,,
4.816,150,114.4781854,0,0,,,
4.82,150,86.63967991,0,0,,,
4.824,150,57.98915927,0,0,,,
4.828,150,64.50076969,0,0,,,
4.832,151,59.08815748,0,0,,,
4.836,151,36.85051813,0,0,,,
4.84,151,39.95597944,0,0,,,
4.844,151,28.76513596,0,0,,,
4.848,151,18.15392721,0,0,,,
4.852,151,51.28697094,0,0,,,
4.856,151,73.9495689,0,0,,,
4.86,151,59.24434936,0,0,,,
4.864,152,64.80036848,0,0,,,
4.868,152,94.59998841,0,0,,,
4.872,152,78.50318803,0,0,,,
4.876,152,39.67508366,0,0,,,
4.88,152,27.89809315,0,0,,,
4.884,152,39.82171931,0,0,,,
4.888,152,53.11418951,0,0,,,
4.892,152,48.12212851,0,0,,,
4.896,153,31.96091056,0,0,,,
4.9,153,22.33715527,0,0,,,
4.904,153,15.70083796,0,0,,,
4.908,153,30.08182455,0,0,,,
4.912,153,53.56135005,0,0,,,
4.916,153,71.95864582,0,0,,,
4.92,153,65.37265487,0,0,,,
4.924,153,43.18467408,0,0,,,
4.928,154,24.15320988,0,0,,,
4.932,154,12.76572584,0,0,,,
4.936,154,21.92396741,0,0,,,
4.94,154,28.72760325,0,0,,,
4.944,154,16.9542741,0,0,,,
4.948,154,16.54841896,0,0,,,
4.952,154,17.49717487,0,0,,,
4.956,154,6.393517398,0,0,,,
4.96,155,10.53817985,0,0,,,
4.964,155,28.59834225,0,0,,,
4.968,155,42.58621281,0,0,,,
4.972,155,38.30172266,0,0,,,
4.976,155,46.43242862,0,0,,,
4.98,155,52.23175318,0,0,,,
4.984,155,35.58665287,0,0,,,
4.988,155,38.90916136,0,0,,,
4.992,156,62.33297624,0,0,,,
4.996,156,63.28697586,0,0,,,
5,156,74.57335522,0,0,,,
5.004,156,73.67869967,0,0,,,
5.008,156,29.16818567,0,0,,,
5.012,156,-4.59685419,0,0,,,
5.016,156,-5.326697304,0,0,,,
5.02,156,18.28478789,0,0,,,
5.024,157,64.59870899,0,0,,,
5.028,157,110.9171518,0,0,,,
5.032,157,121.3193337,0,0,,,
5.036,157,95.40573026,0,0,,,
5.04,157,58.88994704,0,0,,,
5.044,157,37.06617514,0,0,,,
5.048,157,57.82338232,0,0,,,
5.052,157,98.56193212,0,0,,,
5.056,158,117.0789747,0,0,,,
5.06,158,107.6412712,0,0,,,
5.064,158,73.96137022,0,0,,,
5.068,158,58.75437695,0,0,,,
5.072,158,59.13138085,0,0,,,
5.076,158,37.13587367,0,0,,,
5.08,158,11.78303118,0,0,,,
5.084,158,50.97961519,0,0,,,
5.088,159,114.159683,0,0,,,
5.092,159,156.1567763,0,0,,,
5.096,159,209.2236922,0,0,,,
5.1,159,270.1804067,0,0,,,
5.104,159,299.6635407,0,0,,,
5.108,159,297.5397923,0,0,,,
5.112,159,301.5671666,0,0,,,
5.116,159,322.8876739,0,0,,,
5.12,160,333.6653479,0,0,,,
5.124,160,331.8880698,0,0,,,
5.128,160,315.708413,0,0,,,
5.132,160,269.4904295,0,0,,,
5.136,160,237.7236944,0,0,,,
5.14,160,223.4672919,0,0,,,
5.144,160,189.6060261,0,0,,,
5.148,160,150.4770989,0,0,,,
5.152,161,120.5732925,0,0,,,
5.156,161,94.64967568,0,0,,,
5.16,161,72.64944149,0,0,,,
5.164,161,33.937597,0,0,,,
5.168,161,-16.94915486,0,0,,,
5.172,161,-47.30335687,0,0,,,
5.176,161,-62.66188263,0,0,,,
5.18,161,-105.1546147,0,0,,,
5.184,162,-144.9364385,0,0,,,
5.188,162,-141.638323,0,0,,,
5.192,162,-127.6821457,0,0,,,
5.196,162,-153.6800225,0,0,,,
5.2,162,-182.2153504,0,0,,,
5.204,162,-176.3922996,0,0,,,
5.208,162,-169.1307208,0,0,,,
5.212,162,-173.0316669,0,0,,,
5.216,163,-164.649557,0,0,,,
5.22,163,-156.6812909,0,0,,,
5.224,163,-161.8646161,0,0,,,
5.228,163,-156.1099073,0,0,,,
5.232,163,-156.3020296,0,0,,,
5.236,163,-165.74713,0,0,,,
5.24,163,-163.6378623,0,0,,,
5.244,163,-140.8207996,0,0,,,
5.248,164,-105.3392816,0,0,,,
5.252,164,-90.63522928,0,0,,,
5.256,164,-104.79788,0,0,,,
5.26,164,-104.6364953,0,0,,,
5.264,164,-109.6660855,0,0,,,
5.268,164,-108.87931,0,0,,,
5.272,164,-65.63010085,0,0,,,
5.276,164,-53.11053119,0,0,,,
5.28,165,-103.7647795,0,0,,,
5.284,165,-100.0023016,0,0,,,
5.288,165,-48.21001129,0,0,,,
5.292,165,-43.21755351,0,0,,,
5.296,165,-49.87253608,0,0,,,
5.3,165,-32.38790332,0,0,,,
5.304,165,-23.99997671,0,0,,,
5.308,165,-9.697162875,0,0,,,
5.312,166,20.9099404,0,0,,,
5.316,166,18.93245523,0,0,,,
5.32,166,3.15722551,0,0,,,
5.324,166,20.42896127,0,0,,,
5.328,166,29.94452702,0,0,,,
5.332,166,15.52262042,0,0,,,
5.336,166,18.70703679,0,0,,,
5.34,166,13.5746242,0,0,,,
5.344,167,15.78149807,0,0,,,
5.348,167,40.96524958,0,0,,,
5.352,167,43.26431532,0,0,,,
5.356,167,12.69077124,0,0,,,
5.36,167,-0.310104515,0,0,,,
5.364,167,12.26181269,0,0,,,
5.368,167,35.40615963,0,0,,,
5.372,167,53.61254825,0,0,,,
5.376,168,41.56742714,0,0,,,
5.38,168,29.37290721,0,0,,,
5.384,168,32.36669938,0,0,,,
5.388,168,34.28982853,0,0,,,
5.392,168,55.92237526,0,0,,,
5.396,168,69.53823709,0,0,,,
5.4,168,63.81920757,0,0,,,
5.404,168,79.81582746,0,0,,,
5.408,169,84.09119808,0,0,,,
5.412,169,39.67833117,0,0,,,
5.416,169,13.44379999,0,0,,,
5.42,169,43.00480639,0,0,,,
5.424,169,62.63169792,0,0,,,
5.428,169,70.8476637,0,0,,,
5.432,169,71.66335504,0,0,,,
5.436,169,52.95261823,0,0,,,
5.44,170,38.16857134,0,0,,,
5.444,170,44.96515991,0,0,,,
5.448,170,64.22619615,0,0,,,
5.452,170,67.69377368,0,0,,,
5.456,170,53.08406754,0,0,,,
5.46,170,57.79807249,0,0,,,
5.464,170,60.49129157,0,0,,,
5.468,170,67.97214022,0,0,,,
5.472,171,89.45099221,0,0,,,
5.476,171,65.2472094,0,0,,,
5.48,171,16.03469945,0,0,,,
5.484,171,16.06981311,0,0,,,
5.488,171,47.64971152,0,0,,,
5.492,171,77.90773737,0,0,,,
5.496,171,95.39847893,0,0,,,
5.5,171,83.93476554,0,0,,,
5.504,172,51.4670318,0,0,,,
5.508,172,20.30890203,0,0,,,
5.512,172,25.78693194,0,0,,,
5.516,172,41.17337168,0,0,,,
5.52,172,53.05407466,0,0,,,
5.524,172,65.03335529,0,0,,,
5.528,172,53.70886145,0,0,,,
5.532,172,27.50553143,0,0,,,
5.536,173,26.27877106,0,0,,,
5.54,173,32.98160741,0,0,,,
5.544,173,28.44074674,0,0,,,
5.548,173,15.17583107,0,0,,,
5.552,173,11.00211102,0,0,,,
5.556,173,31.48881838,0,0,,,
5.56,173,64.03305969,0,0,,,
5.564,173,60.26757283,0,0,,,
5.568,174,21.33579108,0,0,,,
5.572,174,16.73753411,0,0,,,
5.576,174,41.2177117,0,0,,,
5.58,174,59.01635706,0,0,,,
5.584,174,56.88300246,0,0,,,
5.588,174,41.60820581,0,0,,,
5.592,174,38.74361381,0,0,,,
5.596,174,30.87085516,0,0,,,
5.6,175,14.59700642,0,0,,,
5.604,175,39.73485956,0,0,,,
5.608,175,61.403321,0,0,,,
5.612,175,26.91212112,0,0,,,
5.616,175,3.054768806,0,0,,,
5.62,175,16.38494991,0,0,,,
5.624,175,5.137650293,0,0,,,
5.628,175,12.17673472,0,0,,,
5.632,176,37.66984211,0,0,,,
5.636,176,23.06430296,0,0,,,
5.64,176,12.15512618,0,0,,,
5.644,176,21.79698108,0,0,,,
5.648,176,31.23507325,0,0,,,
5.652,176,56.25567815,0,0,,,
5.656,176,73.85762442,0,0,,,
5.66,176,70.84511364,0,0,,,
5.664,177,53.23852095,0,0,,,
5.668,177,49.86137144,0,0,,,
5.672,177,78.39851529,0,0,,,
5.676,177,84.43583757,0,0,,,
5.68,177,71.11222932,0,0,,,
5.684,177,50.03823111,0,0,,,
5.688,177,34.70887153,0,0,,,
5.692,177,46.98337276,0,0,,,
5.696,178,56.1344091,0,0,,,
5.7,178,50.74120892,0,0,,,
5.704,178,61.58780867,0,0,,,
5.708,178,75.4256005,0,0,,,
5.712,178,78.91848993,0,0,,,
5.716,178,81.51807302,0,0,,,
5.72,178,70.04886836,0,0,,,
5.724,178,48.43077571,0,0,,,
5.728,179,75.91536093,0,0,,,
5.732,179,93.50096961,0,0,,,
5.736,179,62.44758122,0,0,,,
5.74,179,44.86534076,0,0,,,
5.744,179,42.60960598,0,0,,,
5.748,179,47.48233865,0,0,,,
5.752,179,74.09117767,0,0,,,
5.756,179,94.9596538,0,0,,,
5.76,180,80.72676148,0,0,,,
5.764,180,69.46812151,0,0,,,
5.768,180,67.02512034,0,0,,,
5.772,180,46.91910456,0,0,,,
5.776,180,33.84789067,0,0,,,
5.78,180,36.12189009,0,0,,,
5.784,180,40.15227595,0,0,,,
5.788,180,44.18067288,0,0,,,
5.792,181,28.91110572,0,0,,,
5.796,181,30.00997022,0,0,,,
5.8,181,55.49576382,0,0,,,
5.804,181,89.65657593,0,0,,,
5.808,181,86.95510972,0,0,,,
5.812,181,24.49691771,0,0,,,
5.816,181,-9.571810405,0,0,,,
5.82,181,25.49526571,0,0,,,
5.824,182,43.68444989,0,0,,,
5.828,182,36.98715225,0,0,,,
5.832,182,32.23069726,0,0,,,
5.836,182,21.20594935,0,0,,,
5.84,182,29.37229045,0,0,,,
5.844,182,42.6818493,0,0,,,
5.848,182,44.39726753,0,0,,,
5.852,182,49.14626433,0,0,,,
5.856,183,45.08731368,0,0,,,
5.86,183,13.31155162,0,0,,,
5.864,183,-1.987874674,0,0,,,
5.868,183,29.15120456,0,0,,,
5.872,183,71.19122906,0,0,,,
5.876,183,77.30732415,0,0,,,
5.88,183,59.62653489,0,0,,,
5.884,183,53.62041334,0,0,,,
5.888,184,63.90869567,0,0,,,
5.892,184,58.1691067,0,0,,,
5.896,184,49.33897773,0,0,,,
5.9,184,45.23780687,0,0,,,
5.904,184,41.28965563,0,0,,,
5.908,184,48.54924447,0,0,,,
5.912,184,65.57508847,0,0,,,
5.916,184,72.18495628,0,0,,,
5.92,185,62.97419578,0,0,,,
5.924,185,43.61117992,0,0,,,
5.928,185,31.28609173,0,0,,,
5.932,185,29.58525919,0,0,,,
5.936,185,27.38034343,0,0,,,
5.94,185,33.43763716,0,0,,,
5.944,185,41.02975258,0,0,,,
5.948,185,34.46620671,0,0,,,
5.952,186,33.29989262,0,0,,,
5.956,186,57.87055242,0,0,,,
5.96,186,43.44042483,0,0,,,
5.964,186,3.083186553,0,0,,,
5.968,186,-6.058303074,0,0,,,
5.972,186,13.97399566,0,0,,,
5.976,186,48.50927779,0,0,,,
5.98,186,63.76409224,0,0,,,
5.984,187,38.2224667,0,0,,,
5.988,187,9.170567285,0,0,,,
5.992,187,4.480970315,0,0,,,
5.996,187,23.23624136,0,0,,,
6,187,32.73385694,0,0,,,
6.004,187,22.93405144,0,0,,,
6.008,187,13.05541195,0,0,,,
6.012,187,17.97512754,0,0,,,
6.016,188,18.47408298,0,0,,,
6.02,188,14.45637331,0,0,,,
6.024,188,26.27351275,0,0,,,
6.028,188,36.15369709,0,0,,,
6.032,188,50.64636105,0,0,,,
6.036,188,46.7971626,0,0,,,
6.04,188,14.56833503,0,0,,,
6.044,188,7.732874067,0,0,,,
6.048,189,20.14900294,0,0,,,
6.052,189,13.7572158,0,0,,,
6.056,189,38.62816078,0,0,,,
6.06,189,58.08265836,0,0,,,
6.064,189,23.55957367,0,0,,,
6.068,189,17.97712544,0,0,,,
6.072,189,33.62843805,0,0,,,
6.076,189,31.74934848,0,0,,,
6.08,190,52.9902517,0,0,,,
6.084,190,65.99783556,0,0,,,
6.088,190,59.56747921,0,0,,,
6.092,190,61.72638957,0,0,,,
6.096,190,78.53514286,0,0,,,
6.1,190,85.51745513,0,0,,,
6.104,190,42.20410261,0,0,,,
6.108,190,6.503988476,0,0,,,
6.112,191,29.73697623,0,0,,,
6.116,191,30.03484806,0,0,,,
6.12,191,20.20231532,0,0,,,
6.124,191,43.78057133,0,0,,,
6.128,191,25.32895022,0,0,,,
6.132,191,14.61617894,0,0,,,
6.136,191,60.20483842,0,0,,,
6.14,191,83.81437917,0,0,,,
6.144,192,72.95472579,0,0,,,
6.148,192,71.33572942,0,0,,,
6.152,192,94.01839577,0,0,,,
6.156,192,113.7281096,0,0,,,
6.16,192,102.9200904,0,0,,,
6.164,192,74.71873531,0,0,,,
6.168,192,44.7734685,0,0,,,
6.172,192,54.16460115,0,0,,,
6.176,193,73.36850952,0,0,,,
6.18,193,63.14923282,0,0,,,
6.184,193,65.14124413,0,0,,,
6.188,193,79.20498638,0,0,,,
6.192,193,72.94106969,0,0,,,
6.196,193,73.81073729,0,0,,,
6.2,193,56.236804,0,0,,,
6.204,193,27.79919599,0,0,,,
6.208,194,41.14974866,0,0,,,
6.212,194,51.53848859,0,0,,,
6.216,194,49.94214403,0,0,,,
6.22,194,47.03714668,0,0,,,
6.224,194,72.53390727,0,0,,,
6.228,194,107.6591544,0,0,,,
6.232,194,74.41209423,0,0,,,
6.236,194,51.84646598,0,0,,,
6.24,195,78.22547696,0,0,,,
6.244,195,63.58485667,0,0,,,
6.248,195,53.23550405,0,0,,,
6.252,195,59.63935498,0,0,,,
6.256,195,36.39155554,0,0,,,
6.26,195,6.2450406,0,0,,,
6.264,195,4.474748479,0,0,,,
6.268,195,35.0486345,0,0,,,
6.272,196,69.29423839,0,0,,,
6.276,196,103.4073604,0,0,,,
6.28,196,118.1908979,0,0,,,
6.284,196,77.57463317,0,0,,,
6.288,196,40.44325029,0,0,,,
6.292,196,46.5957312,0,0,,,
6.296,196,49.99330571,0,0,,,
6.3,196,46.30523367,0,0,,,
6.304,197,61.81615308,0,0,,,
6.308,197,66.45234949,0,0,,,
6.312,197,44.4519812,0,0,,,
6.316,197,27.35374398,0,0,,,
6.32,197,34.89856599,0,0,,,
6.324,197,63.5914106,0,0,,,
6.328,197,68.74805563,0,0,,,
6.332,197,55.5991416,0,0,,,
6.336,198,42.51062796,0,0,,,
6.34,198,32.46550391,0,0,,,
6.344,198,38.85963409,0,0,,,
6.348,198,58.85578634,0,0,,,
6.352,198,49.32916398,0,0,,,
6.356,198,29.49558871,0,0,,,
6.36,198,38.21083491,0,0,,,
6.364,198,45.98615122,0,0,,,
6.368,199,31.81922048,0,0,,,
6.372,199,43.71383525,0,0,,,
6.376,199,77.25991016,0,0,,,
6.38,199,84.77312657,0,0,,,
6.384,199,79.16207997,0,0,,,
6.388,199,74.31453558,0,0,,,
6.392,199,62.22709006,0,0,,,
6.396,199,48.25771321,0,0,,,
6.4,200,63.82882263,0,0,,,
6.404,200,90.83947799,0,0,,,
6.408,200,89.24299783,0,0,,,
6.412,200,69.48287709,0,0,,,
6.416,200,48.29718757,0,0,,,
6.42,200,24.26033255,0,0,,,
6.424,200,37.80142508,0,0,,,
6.428,200,69.48190315,0,0,,,
6.432,201,64.69089611,0,0,,,
6.436,201,52.00783614,0,0,,,
6.44,201,59.30234698,0,0,,,
6.444,201,65.54616404,0,0,,,
6.448,201,69.80811748,0,0,,,
6.452,201,51.75898068,0,0,,,
6.456,201,35.09928095,0,0,,,
6.46,201,47.61903639,0,0,,,
6.464,202,63.32227164,0,0,,,
6.468,202,78.88018961,0,0,,,
6.472,202,74.64305603,0,0,,,
6.476,202,54.9429783,0,0,,,
6.48,202,41.86525873,0,0,,,
6.484,202,18.08870502,0,0,,,
6.488,202,13.8798715,0,0,,,
6.492,202,29.67022284,0,0,,,
6.496,203,18.12721697,0,0,,,
6.5,203,28.63549265,0,0,,,
6.504,203,41.53404789,0,0,,,
6.508,203,26.85715703,0,0,,,
6.512,203,22.68192487,0,0,,,
6.516,203,17.09368463,0,0,,,
6.52,203,20.99648308,0,0,,,
6.524,203,48.36525474,0,0,,,
6.528,204,59.07107785,0,0,,,
6.532,204,65.73547961,0,0,,,
6.536,204,62.00468732,0,0,,,
6.54,204,42.30110826,0,0,,,
6.544,204,57.43563858,0,0,,,
6.548,204,81.94367145,0,0,,,
6.552,204,53.89815109,0,0,,,
6.556,204,21.76617215,0,0,,,
6.56,205,29.20456131,0,0,,,
6.564,205,36.25308834,0,0,,,
6.568,205,41.41269808,0,0,,,
6.572,205,66.14186317,0,0,,,
6.576,205,76.80432161,0,0,,,
6.58,205,68.65645526,0,0,,,
6.584,205,70.3621679,0,0,,,
6.588,205,57.85338367,0,0,,,
6.592,206,46.19533836,0,0,,,
6.596,206,46.14287255,0,0,,,
6.6,206,44.44314319,0,0,,,
6.604,206,54.04760886,0,0,,,
6.608,206,62.34291128,0,0,,,
6.612,206,41.71018485,0,0,,,
6.616,206,18.18626889,0,0,,,
6.62,206,15.36141907,0,0,,,
6.624,207,30.975395,0,0,,,
6.628,207,22.94623262,0,0,,,
6.632,207,20.46794628,0,0,,,
6.636,207,46.91928452,0,0,,,
6.64,207,48.67982501,0,0,,,
6.644,207,30.2409044,0,0,,,
6.648,207,31.43095249,0,0,,,
6.652,207,47.23423631,0,0,,,
6.656,208,47.69635968,0,0,,,
6.66,208,52.10035474,0,0,,,
6.664,208,65.29569284,0,0,,,
6.668,208,58.53887543,0,0,,,
6.672,208,53.98394131,0,0,,,
6.676,208,76.27449728,0,0,,,
6.68,208,80.53728377,0,0,,,
6.684,208,42.57615865,0,0,,,
6.688,209,15.76617165,0,0,,,
6.692,209,24.17562124,0,0,,,
6.696,209,16.39199038,0,0,,,
6.7,209,20.42866531,0,0,,,
6.704,209,37.83544364,0,0,,,
6.708,209,18.72413969,0,0,,,
6.712,209,-7.043222892,0,0,,,
6.716,209,-14.95348223,0,0,,,
6.72,210,-12.6427996,0,0,,,
6.724,210,3.800315545,0,0,,,
6.728,210,15.76472728,0,0,,,
6.732,210,37.48106182,0,0,,,
6.736,210,43.65367233,0,0,,,
6.74,210,19.23691802,0,0,,,
6.744,210,22.53071786,0,0,,,
6.748,210,34.33889394,0,0,,,
6.752,211,24.24470882,0,0,,,
6.756,211,12.68032416,0,0,,,
6.76,211,18.38490967,0,0,,,
6.764,211,11.53064672,0,0,,,
6.768,211,-10.88703988,0,0,,,
6.772,211,10.80629767,0,0,,,
6.776,211,47.62338761,0,0,,,
6.78,211,61.03588853,0,0,,,
6.784,212,69.54241038,0,0,,,
6.788,212,35.04014941,0,0,,,
6.792,212,15.88176824,0,0,,,
6.796,212,40.63552821,0,0,,,
6.8,212,47.26337921,0,0,,,
6.804,212,55.60623258,0,0,,,
6.808,212,75.93817839,0,0,,,
6.812,212,60.78881643,0,0,,,
6.816,213,43.93482221,0,0,,,
6.82,213,50.49761167,0,0,,,
6.824,213,46.15107723,0,0,,,
6.828,213,39.25262182,0,0,,,
6.832,213,26.50276413,0,0,,,
6.836,213,1.008904687,0,0,,,
6.84,213,-1.105142332,0,0,,,
6.844,213,2.550864911,0,0,,,
6.848,214,-12.58488886,0,0,,,
6.852,214,1.008672139,0,0,,,
6.856,214,31.79117504,0,0,,,
6.86,214,40.19716769,0,0,,,
6.864,214,25.38048289,0,0,,,
6.868,214,13.96289415,0,0,,,
6.872,214,5.707069153,0,0,,,
6.876,214,7.155345979,0,0,,,
6.88,215,23.91154315,0,0,,,
6.884,215,16.19965038,0,0,,,
6.888,215,-8.306409063,0,0,,,
6.892,215,-0.594521122,0,0,,,
6.896,215,10.57256175,0,0,,,
6.9,215,4.752333889,0,0,,,
6.904,215,-16.25988766,0,0,,,
6.908,215,-27.66373331,0,0,,,
6.912,216,-3.100089124,0,0,,,
6.916,216,23.90560979,0,0,,,
6.92,216,26.44466591,0,0,,,
6.924,216,37.6559639,0,0,,,
6.928,216,69.46229097,0,0,,,
6.932,216,81.40467737,0,0,,,
6.936,216,67.50921882,0,0,,,
6.94,216,57.21099211,0,0,,,
6.944,217,57.68791709,0,0,,,
6.948,217,53.7488022,0,0,,,
6.952,217,70.81970323,0,0,,,
6.956,217,93.12488931,0,0,,,
6.96,217,89.06251728,0,0,,,
6.964,217,59.54292467,0,0,,,
6.968,217,28.89031688,0,0,,,
6.972,217,13.2443386,0,0,,,
6.976,218,26.41444414,0,0,,,
6.98,218,50.04187146,0,0,,,
6.984,218,44.62841678,0,0,,,
6.988,218,12.53640272,0,0,,,
6.992,218,0.178071286,0,0,,,
6.996,218,28.18084988,0,0,,,
7,218,44.36897679,0,0,,,
7.004,218,17.71214596,0,0,,,
7.008,219,-2.699445591,0,0,,,
7.012,219,11.96415072,0,0,,,
7.016,219,31.15861265,0,0,,,
7.02,219,47.29547258,0,0,,,
7.024,219,65.03924463,0,0,,,
7.028,219,63.4828544,0,0,,,
7.032,219,52.54858508,0,0,,,
7.036,219,40.51076082,0,0,,,
7.04,220,11.99374911,0,0,,,
7.044,220,-6.054397742,0,0,,,
7.048,220,-21.20451939,0,0,,,
7.052,220,-30.83088439,0,0,,,
7.056,220,-28.53187206,0,0,,,
7.06,220,-15.61460151,0,0,,,
7.064,220,6.810260108,0,0,,,
7.068,220,22.51256015,0,0,,,
7.072,221,29.83638925,0,0,,,
7.076,221,37.81266538,0,0,,,
7.08,221,35.68937385,0,0,,,
7.084,221,20.27328983,0,0,,,
7.088,221,17.14098251,0,0,,,
7.092,221,21.41754974,0,0,,,
7.096,221,23.23829747,0,0,,,
7.1,221,37.50451888,0,0,,,
7.104,222,39.35129305,0,0,,,
7.108,222,39.01514307,0,0,,,
7.112,222,63.6077789,0,0,,,
7.116,222,88.9135355,0,0,,,
7.12,222,95.12704568,0,0,,,
7.124,222,100.3463085,0,0,,,
7.128,222,116.321829,0,0,,,
7.132,222,115.0619944,0,0,,,
7.136,223,117.5458465,0,0,,,
7.14,223,110.3055511,0,0,,,
7.144,223,97.3754261,0,0,,,
7.148,223,102.125439,0,0,,,
7.152,223,101.02802,0,0,,,
7.156,223,64.9955407,0,0,,,
7.16,223,35.87356763,0,0,,,
7.164,223,48.76657205,0,0,,,
7.168,224,52.39289259,0,0,,,
7.172,224,40.66869163,0,0,,,
7.176,224,45.89466036,0,0,,,
7.18,224,42.24082996,0,0,,,
7.184,224,16.67080992,0,0,,,
7.188,224,7.723099771,0,0,,,
7.192,224,16.79836756,0,0,,,
7.196,224,21.89119894,0,0,,,
7.2,225,37.45891888,0,0,,,
7.204,225,57.27184521,0,0,,,
7.208,225,53.46135773,0,0,,,
7.212,225,35.17584075,0,0,,,
7.216,225,21.23389681,0,0,,,
7.22,225,21.3737591,0,0,,,
7.224,225,30.12403893,0,0,,,
7.228,225,33.61401376,0,0,,,
7.232,226,17.9118874,0,0,,,
7.236,226,0.002997365,0,0,,,
7.24,226,-3.681467586,0,0,,,
7.244,226,11.43454049,0,0,,,
7.248,226,21.6311469,0,0,,,
7.252,226,33.36536911,0,0,,,
7.256,226,56.18938801,0,0,,,
7.26,226,47.62471783,0,0,,,
7.264,227,15.0604502,0,0,,,
7.268,227,16.3448842,0,0,,,
7.272,227,19.73190663,0,0,,,
7.276,227,36.16846904,0,0,,,
7.28,227,87.68672777,0,0,,,
7.284,227,90.10618482,0,0,,,
7.288,227,46.79335027,0,0,,,
7.292,227,31.76297247,0,0,,,
7.296,228,35.13155579,0,0,,,
7.3,228,37.36007827,0,0,,,
7.304,228,54.74675547,0,0,,,
7.308,228,53.94329901,0,0,,,
7.312,228,29.79330505,0,0,,,
7.316,228,17.67807575,0,0,,,
7.32,228,25.43330224,0,0,,,
7.324,228,20.39141104,0,0,,,
7.328,229,20.31273161,0,0,,,
7.332,229,34.21081325,0,0,,,
7.336,229,40.55919725,0,0,,,
7.34,229,34.91737919,0,0,,,
7.344,229,28.22721011,0,0,,,
7.348,229,14.11162539,0,0,,,
7.352,229,-7.645651712,0,0,,,
7.356,229,-3.926122908,0,0,,,
7.36,230,29.18746721,0,0,,,
7.364,230,63.96548211,0,0,,,
7.368,230,76.96657845,0,0,,,
7.372,230,49.24090243,0,0,,,
7.376,230,15.56719324,0,0,,,
7.38,230,16.59987967,0,0,,,
7.384,230,36.25244592,0,0,,,
7.388,230,45.83018085,0,0,,,
7.392,231,24.61679781,0,0,,,
7.396,231,11.66452495,0,0,,,
7.4,231,21.02611761,0,0,,,
7.404,231,32.67766905,0,0,,,
7.408,231,67.40506124,0,0,,,
7.412,231,84.89900354,0,0,,,
7.416,231,40.48558923,0,0,,,
7.42,231,23.6719448,0,0,,,
7.424,232,30.50419479,0,0,,,
7.428,232,4.831309755,0,0,,,
7.432,232,-4.688324875,0,0,,,
7.436,232,32.4490334,0,0,,,
7.44,232,50.31313757,0,0,,,
7.444,232,54.15108597,0,0,,,
7.448,232,64.97561818,0,0,,,
7.452,232,41.60715249,0,0,,,
7.456,233,30.25383561,0,0,,,
7.46,233,53.42459803,0,0,,,
7.464,233,60.98261093,0,0,,,
7.468,233,55.25490858,0,0,,,
7.472,233,50.92549931,0,0,,,
7.476,233,44.46218278,0,0,,,
7.48,233,46.48293006,0,0,,,
7.484,233,36.4282321,0,0,,,
7.488,234,13.77488029,0,0,,,
7.492,234,15.73926542,0,0,,,
7.496,234,39.91758927,0,0,,,
7.5,234,55.12080655,0,0,,,
7.504,234,66.47527425,0,0,,,
7.508,234,68.80838461,0,0,,,
7.512,234,64.12257452,0,0,,,
7.516,234,70.527764,0,0,,,
7.52,235,86.44244607,0,0,,,
7.524,235,68.60930609,0,0,,,
7.528,235,47.26017971,0,0,,,
7.532,235,74.35636174,0,0,,,
7.536,235,98.52485419,0,0,,,
7.54,235,68.23054589,0,0,,,
7.544,235,51.48938634,0,0,,,
7.548,235,46.85969397,0,0,,,
7.552,236,10.15906926,0,0,,,
7.556,236,17.10264983,0,0,,,
7.56,236,40.61470267,0,0,,,
7.564,236,26.99626708,0,0,,,
7.568,236,25.0751408,0,0,,,
7.572,236,56.1108819,0,0,,,
7.576,236,61.81422988,0,0,,,
7.58,236,25.63069314,0,0,,,
7.584,237,11.28402579,0,0,,,
7.588,237,32.2766733,0,0,,,
7.592,237,42.43393899,0,0,,,
7.596,237,40.05668706,0,0,,,
7.6,237,28.04430015,0,0,,,
7.604,237,20.84955732,0,0,,,
7.608,237,33.71310831,0,0,,,
7.612,237,55.00543739,0,0,,,
7.616,238,49.76398825,0,0,,,
7.62,238,24.43927089,0,0,,,
7.624,238,15.99814166,0,0,,,
7.628,238,32.41644185,0,0,,,
7.632,238,50.15475959,0,0,,,
7.636,238,47.73391425,0,0,,,
7.64,238,29.47168423,0,0,,,
7.644,238,15.12569871,0,0,,,
7.648,239,25.26183635,0,0,,,
7.652,239,50.85911633,0,0,,,
7.656,239,73.97144629,0,0,,,
7.66,239,72.47658748,0,0,,,
7.664,239,43.52520592,0,0,,,
7.668,239,37.32013177,0,0,,,
7.672,239,51.51803201,0,0,,,
7.676,239,47.16980557,0,0,,,
7.68,240,48.52812054,0,0,,,
7.684,240,41.45630427,0,0,,,
7.688,240,28.91259708,0,0,,,
7.692,240,37.53604069,0,0,,,
7.696,240,50.98040729,0,0,,,
7.7,240,25.79273681,0,0,,,
7.704,240,17.21097057,0,0,,,
7.708,240,36.0758418,0,0,,,
7.712,241,26.78127458,0,0,,,
7.716,241,29.3618773,0,0,,,
7.72,241,43.16813185,0,0,,,
7.724,241,30.09587866,0,0,,,
7.728,241,26.99738982,0,0,,,
7.732,241,22.85026676,0,0,,,
7.736,241,-22.6553916,0,0,,,
7.74,241,-22.05399707,0,0,,,
7.744,242,42.77114313,0,0,,,
7.748,242,74.36244256,0,0,,,
7.752,242,84.28530879,0,0,,,
7.756,242,93.33168351,0,0,,,
7.76,242,68.73038755,0,0,,,
7.764,242,59.78396351,0,0,,,
7.768,242,80.66340844,0,0,,,
7.772,242,98.17095611,0,0,,,
7.776,243,62.69740456,0,0,,,
7.78,243,11.82685128,0,0,,,
7.784,243,28.19403324,0,0,,,
7.788,243,56.2068953,0,0,,,
7.792,243,35.13896284,0,0,,,
7.796,243,17.74884146,0,0,,,
7.8,243,45.40734986,0,0,,,
7.804,243,54.84271408,0,0,,,
7.808,244,15.4222775,0,0,,,
7.812,244,12.81836287,0,0,,,
7.816,244,31.41096011,0,0,,,
7.82,244,1.546739508,0,0,,,
7.824,244,-16.99856089,0,0,,,
7.828,244,19.41364256,0,0,,,
7.832,244,52.48093698,0,0,,,
7.836,244,63.80178105,0,0,,,
7.84,245,64.19547747,0,0,,,
7.844,245,38.39365617,0,0,,,
7.848,245,14.77346403,0,0,,,
7.852,245,5.969974451,0,0,,,
7.856,245,13.14983307,0,0,,,
7.86,245,24.56053469,0,0,,,
7.864,245,28.02226581,0,0,,,
7.868,245,23.21266394,0,0,,,
7.872,246,24.05653877,0,0,,,
7.876,246,18.79243622,0,0,,,
7.88,246,25.35127554,0,0,,,
7.884,246,60.79751184,0,0,,,
7.888,246,82.89642455,0,0,,,
7.892,246,78.02011504,0,0,,,
7.896,246,59.50123595,0,0,,,
7.9,246,42.98260586,0,0,,,
7.904,247,43.31440248,0,0,,,
7.908,247,23.90056114,0,0,,,
7.912,247,2.829385524,0,0,,,
7.916,247,25.0942252,0,0,,,
7.92,247,48.08777513,0,0,,,
7.924,247,63.57061544,0,0,,,
7.928,247,66.08191643,0,0,,,
7.932,247,35.82443837,0,0,,,
7.936,248,21.47070647,0,0,,,
7.94,248,42.70053576,0,0,,,
7.944,248,47.1555536,0,0,,,
7.948,248,33.99610212,0,0,,,
7.952,248,24.40216009,0,0,,,
7.956,248,38.18551787,0,0,,,
7.96,248,53.61875595,0,0,,,
7.964,248,62.45399337,0,0,,,
7.968,249,66.29562455,0,0,,,
7.972,249,56.45492503,0,0,,,
7.976,249,39.93082517,0,0,,,
7.98,249,39.43625314,0,0,,,
7.984,249,42.18967657,0,0,,,
7.988,249,25.27804904,0,0,,,
7.992,249,20.50222158,0,0,,,
7.996,249,38.20467115,0,0,,,
8,250,37.12877462,0,0,,,
8.004,250,10.24399342,0,0,,,
8.008,250,-4.704866807,0,0,,,
8.012,250,25.14993501,0,0,,,
8.016,250,55.76775493,0,0,,,
8.02,250,51.50875685,0,0,,,
8.024,250,57.27334862,0,0,,,
8.028,250,40.54496319,0,0,,,
8.032,251,38.56438024,0,0,,,
8.036,251,78.48161755,0,0,,,
8.04,251,82.85521445,0,0,,,
8.044,251,55.37473811,0,0,,,
8.048,251,60.0462042,0,0,,,
8.052,251,57.04681057,0,0,,,
8.056,251,27.03944048,0,0,,,
8.06,251,21.18481614,0,0,,,
8.064,252,42.06907835,0,0,,,
8.068,252,63.30131476,0,0,,,
8.072,252,66.35446079,0,0,,,
8.076,252,48.06629771,0,0,,,
8.08,252,44.86700594,0,0,,,
8.084,252,74.29941512,0,0,,,
8.088,252,90.98611956,0,0,,,
8.092,252,86.41306961,0,0,,,
8.096,253,90.33109163,0,0,,,
8.1,253,75.05947571,0,0,,,
8.104,253,28.80184694,0,0,,,
8.108,253,23.25648913,0,0,,,
8.112,253,35.79274903,0,0,,,
8.116,253,31.59910105,0,0,,,
8.12,253,47.00696893,0,0,,,
8.124,253,66.04053445,0,0,,,
8.128,254,45.54878008,0,0,,,
8.132,254,36.34392134,0,0,,,
8.136,254,60.9904629,0,0,,,
8.14,254,66.01232658,0,0,,,
8.144,254,58.53791302,0,0,,,
8.148,254,58.40755885,0,0,,,
8.152,254,55.50610291,0,0,,,
8.156,254,42.83154946,0,0,,,
8.16,255,27.7583361,0,0,,,
8.164,255,42.71813061,0,0,,,
8.168,255,38.80928076,0,0,,,
8.172,255,10.98663248,0,0,,,
8.176,255,4.097185279,0,0,,,
8.18,255,5.259154573,0,0,,,
8.184,255,28.01680813,0,0,,,
8.188,255,62.93998574,0,0,,,
8.192,256,61.17331959,0,0,,,
8.196,256,23.77275533,0,0,,,
8.2,256,19.4429988,0,0,,,
8.204,256,28.62179656,0,0,,,
8.208,256,23.46268142,0,0,,,
8.212,256,11.66394005,0,0,,,
8.216,256,-11.5335861,0,0,,,
8.22,256,-17.4072219,0,0,,,
8.224,257,3.735403007,0,0,,,
8.228,257,14.63205803,0,0,,,
8.232,257,14.26015739,0,0,,,
8.236,257,10.89798091,0,0,,,
8.24,257,8.775059634,0,0,,,
8.244,257,0.916594342,0,0,,,
8.248,257,-0.859152903,0,0,,,
8.252,257,11.30490842,0,0,,,
8.256,258,18.99869541,0,0,,,
8.26,258,20.37213183,0,0,,,
8.264,258,12.87356881,0,0,,,
8.268,258,28.423246,0,0,,,
8.272,258,43.30556585,0,0,,,
8.276,258,10.76311573,0,0,,,
8.28,258,7.425852696,0,0,,,
8.284,258,35.86452465,0,0,,,
8.288,259,24.52705008,0,0,,,
8.292,259,4.534272997,0,0,,,
8.296,259,-3.115174994,0,0,,,
8.3,259,3.278977264,0,0,,,
8.304,259,20.85452659,0,0,,,
8.308,259,41.80399526,0,0,,,
8.312,259,48.58970565,0,0,,,
8.316,259,42.51829418,0,0,,,
8.32,260,39.77094663,0,0,,,
8.324,260,40.40834448,0,0,,,
8.328,260,40.31854534,0,0,,,
8.332,260,54.85910469,0,0,,,
8.336,260,63.62776551,0,0,,,
8.34,260,49.61365354,0,0,,,
8.344,260,39.25790086,0,0,,,
8.348,260,23.3134676,0,0,,,
8.352,261,-15.24387064,0,0,,,
8.356,261,-15.87240593,0,0,,,
8.36,261,5.285984126,0,0,,,
8.364,261,-2.159829493,0,0,,,
8.368,261,-3.99891819,0,0,,,
8.372,261,-0.175958506,0,0,,,
8.376,261,-4.604592719,0,0,,,
8.38,261,5.980430835,0,0,,,
8.384,262,29.08810652,0,0,,,
8.388,262,18.20446759,0,0,,,
8.392,262,13.91896755,0,0,,,
8.396,262,31.99306224,0,0,,,
8.4,262,31.37185307,0,0,,,
8.404,262,32.03198224,0,0,,,
8.408,262,44.74457179,0,0,,,
8.412,262,39.85756745,0,0,,,
8.416,263,45.51614381,0,0,,,
8.42,263,79.31592091,0,0,,,
8.424,263,120.3347376,0,0,,,
8.428,263,133.2754839,0,0,,,
8.432,263,128.2315598,0,0,,,
8.436,263,112.5441258,0,0,,,
8.44,263,79.55650059,0,0,,,
8.444,263,71.06672579,0,0,,,
8.448,264,95.737753,0,0,,,
8.452,264,135.7449983,0,0,,,
8.456,264,178.2679425,0,0,,,
8.46,264,209.9999777,0,0,,,
8.464,264,229.2039564,0,0,,,
8.468,264,241.2984976,0,0,,,
8.472,264,211.6646652,0,0,,,
8.476,264,191.6425883,0,0,,,
8.48,265,239.0859337,0,0,,,
8.484,265,303.5174952,0,0,,,
8.488,265,330.5762913,0,0,,,
8.492,265,302.9885207,0,0,,,
8.496,265,241.9233764,0,0,,,
8.5,265,229.6271673,0,0,,,
8.504,265,257.2599614,0,0,,,
8.508,265,251.996459,0,0,,,
8.512,266,227.3448631,0,0,,,
8.516,266,203.5967724,0,0,,,
8.52,266,190.0997496,0,0,,,
8.524,266,189.7218049,0,0,,,
8.528,266,148.3561144,0,0,,,
8.532,266,104.2270454,0,0,,,
8.536,266,81.02619483,0,0,,,
8.54,266,45.07608833,0,0,,,
8.544,267,25.72597506,0,0,,,
8.548,267,3.723500486,0,0,,,
8.552,267,-23.01573092,0,0,,,
8.556,267,-41.31330152,0,0,,,
8.56,267,-75.41671107,0,0,,,
8.564,267,-110.4643865,0,0,,,
8.568,267,-125.7181462,0,0,,,
8.572,267,-137.9575865,0,0,,,
8.576,268,-124.0835243,0,0,,,
8.58,268,-108.365875,0,0,,,
8.584,268,-135.6400304,0,0,,,
8.588,268,-156.9419166,0,0,,,
8.592,268,-150.5811536,0,0,,,
8.596,268,-151.942823,0,0,,,
8.6,268,-139.7258507,0,0,,,
8.604,268,-120.3034894,0,0,,,
8.608,269,-96.49599994,0,0,,,
8.612,269,-79.39624309,0,0,,,
8.616,269,-64.01213615,0,0,,,
8.62,269,-44.57479468,0,0,,,
8.624,269,-58.31531063,0,0,,,
8.628,269,-74.30935761,0,0,,,
8.632,269,-41.32743771,0,0,,,
8.636,269,-28.52545122,0,0,,,
8.64,270,-74.43643525,0,0,,,
8.644,270,-81.60728435,0,0,,,
8.648,270,-53.95683136,0,0,,,
8.652,270,-51.42989349,0,0,,,
8.656,270,-68.8542602,0,0,,,
8.66,270,-74.06020719,0,0,,,
8.664,270,-69.38632483,0,0,,,
8.668,270,-40.82924807,0,0,,,
8.672,271,8.736348895,0,0,,,
8.676,271,33.74211569,0,0,,,
8.68,271,11.42015624,0,0,,,
8.684,271,-0.826373073,0,0,,,
8.688,271,25.01397576,0,0,,,
8.692,271,41.98789153,0,0,,,
8.696,271,33.15526049,0,0,,,
8.7,271,26.00857968,0,0,,,
8.704,272,24.00259001,0,0,,,
8.708,272,10.37822451,0,0,,,
8.712,272,3.691925139,0,0,,,
8.716,272,15.16421822,0,0,,,
8.72,272,10.98410543,0,0,,,
8.724,272,-4.213432558,0,0,,,
8.728,272,-3.703023603,0,0,,,
8.732,272,-8.530090137,0,0,,,
8.736,273,-7.054708811,0,0,,,
8.74,273,4.248208049,0,0,,,
8.744,273,1.931590601,0,0,,,
8.748,273,-0.45753201,0,0,,,
8.752,273,28.36168011,0,0,,,
8.756,273,51.08346527,0,0,,,
8.76,273,40.34223713,0,0,,,
8.764,273,37.67710003,0,0,,,
8.768,274,65.84660816,0,0,,,
8.772,274,85.24595789,0,0,,,
8.776,274,74.79742488,0,0,,,
8.78,274,42.69095935,0,0,,,
8.784,274,20.50108647,0,0,,,
8.788,274,26.69208359,0,0,,,
8.792,274,29.81798263,0,0,,,
8.796,274,35.34868668,0,0,,,
8.8,275,53.45471419,0,0,,,
8.804,275,54.32392938,0,0,,,
8.808,275,49.7378981,0,0,,,
8.812,275,65.02710553,0,0,,,
8.816,275,68.76757851,0,0,,,
8.82,275,47.89058998,0,0,,,
8.824,275,31.69661773,0,0,,,
8.828,275,22.10233922,0,0,,,
8.832,276,20.59666209,0,0,,,
8.836,276,41.73743387,0,0,,,
8.84,276,46.6896449,0,0,,,
8.844,276,28.85622315,0,0,,,
8.848,276,31.22324997,0,0,,,
8.852,276,59.02386517,0,0,,,
8.856,276,68.17369836,0,0,,,
8.86,276,57.82715306,0,0,,,
8.864,277,47.02451896,0,0,,,
8.868,277,44.66103523,0,0,,,
8.872,277,49.07324049,0,0,,,
8.876,277,48.59750419,0,0,,,
8.88,277,31.94855886,0,0,,,
8.884,277,34.26057043,0,0,,,
8.888,277,61.71585383,0,0,,,
8.892,277,62.00325593,0,0,,,
8.896,278,49.3914558,0,0,,,
8.9,278,22.26278755,0,0,,,
8.904,278,-17.56650533,0,0,,,
8.908,278,-9.148647,0,0,,,
8.912,278,19.94430937,0,0,,,
8.916,278,8.410070948,0,0,,,
8.92,278,-4.513928297,0,0,,,
8.924,278,2.737369575,0,0,,,
8.928,279,0.856474898,0,0,,,
8.932,279,-5.980244067,0,0,,,
8.936,279,5.613461438,0,0,,,
8.94,279,15.92602009,0,0,,,
8.944,279,29.80951719,0,0,,,
8.948,279,51.33405838,0,0,,,
8.952,279,45.29449171,0,0,,,
8.956,279,11.18435547,0,0,,,
8.96,280,-4.202090594,0,0,,,
8.964,280,-8.372943389,0,0,,,
8.968,280,-5.168594568,0,0,,,
8.972,280,23.81884897,0,0,,,
8.976,280,33.91117869,0,0,,,
8.98,280,5.564159716,0,0,,,
8.984,280,-5.350506551,0,0,,,
8.988,280,3.406568619,0,0,,,
8.992,281,18.2797675,0,0,,,
8.996,281,31.37760779,0,0,,,
9,281,30.23560187,0,0,,,
9.004,281,35.60588427,0,0,,,
9.008,281,42.46249879,0,0,,,
9.012,281,47.49776939,0,0,,,
9.016,281,38.19563052,0,0,,,
9.02,281,41.09071058,0,0,,,
9.024,282,55.90577707,0,0,,,
9.028,282,68.40368405,0,0,,,
9.032,282,70.57927372,0,0,,,
9.036,282,64.11340342,0,0,,,
9.04,282,52.68366277,0,0,,,
9.044,282,30.93568639,0,0,,,
9.048,282,17.29951007,0,0,,,
9.052,282,28.48396696,0,0,,,
9.056,283,40.46429725,0,0,,,
9.06,283,38.88836262,0,0,,,
9.064,283,48.96149259,0,0,,,
9.068,283,56.5317253,0,0,,,
9.072,283,54.51914957,0,0,,,
9.076,283,50.41931872,0,0,,,
9.08,283,19.61854918,0,0,,,
9.084,283,0.729182179,0,0,,,
9.088,284,12.73137506,0,0,,,
9.092,284,9.989806945,0,0,,,
9.096,284,11.85754041,0,0,,,
9.1,284,23.64226793,0,0,,,
9.104,284,22.09974137,0,0,,,
9.108,284,-3.577418614,0,0,,,
9.112,284,-22.45859195,0,0,,,
9.116,284,-2.581717382,0,0,,,
9.12,285,22.28322771,0,0,,,
9.124,285,29.60333481,0,0,,,
9.128,285,25.35830569,0,0,,,
9.132,285,8.793402944,0,0,,,
9.136,285,7.618834477,0,0,,,
9.14,285,-1.602883962,0,0,,,
9.144,285,-19.82696972,0,0,,,
9.148,285,-29.65473481,0,0,,,
9.152,286,-38.6907175,0,0,,,
9.156,286,-22.28107574,0,0,,,
9.16,286,3.582665863,0,0,,,
9.164,286,-5.41502164,0,0,,,
9.168,286,-9.662102214,0,0,,,
9.172,286,30.60018094,0,0,,,
9.176,286,61.10298301,0,0,,,
9.18,286,58.46354354,0,0,,,
9.184,287,33.70908782,0,0,,,
9.188,287,2.913640953,0,0,,,
9.192,287,2.517589724,0,0,,,
9.196,287,22.70266201,0,0,,,
9.2,287,25.0676599,0,0,,,
9.204,287,27.08746699,0,0,,,
9.208,287,45.93954371,0,0,,,
9.212,287,71.31686465,0,0,,,
9.216,288,72.36266912,0,0,,,
9.22,288,73.58856688,0,0,,,
9.224,288,78.24734579,0,0,,,
9.228,288,62.43174408,0,0,,,
9.232,288,26.62494324,0,0,,,
9.236,288,5.198538814,0,0,,,
9.24,288,13.5024294,0,0,,,
9.244,288,-22.80728545,0,0,,,
9.248,289,-57.91902798,0,0,,,
9.252,289,-28.53388948,0,0,,,
9.256,289,-38.90671256,0,0,,,
9.26,289,-104.7511683,0,0,,,
9.264,289,-129.5581916,0,0,,,
9.268,289,-122.1722933,0,0,,,
9.272,289,-123.1853423,0,0,,,
9.276,289,-124.7813827,0,0,,,
9.28,290,-137.7204856,0,0,,,
9.284,290,-179.9412427,0,0,,,
9.288,290,-199.1981784,0,0,,,
9.292,290,-153.5157697,0,0,,,
9.296,290,-111.7007003,0,0,,,
9.3,290,-85.16448618,0,0,,,
9.304,290,-4.087614157,0,0,,,
9.308,290,42.01346101,0,0,,,
9.312,291,50.15410767,0,0,,,
9.316,291,118.5664452,0,0,,,
9.32,291,173.7263907,0,0,,,
9.324,291,185.7815882,0,0,,,
9.328,291,209.4703949,0,0,,,
9.332,291,210.4886131,0,0,,,
9.336,291,217.2253507,0,0,,,
9.34,291,261.3009815,0,0,,,
9.344,292,280.3001389,0,0,,,
9.348,292,256.2824741,0,0,,,
9.352,292,221.5492871,0,0,,,
9.356,292,205.2765906,0,0,,,
9.36,292,192.2036356,0,0,,,
9.364,292,165.846562,0,0,,,
9.368,292,149.7450684,0,0,,,
9.372,292,157.8045124,0,0,,,
9.376,293,145.4448743,0,0,,,
9.38,293,118.14025,0,0,,,
9.384,293,93.59640219,0,0,,,
9.388,293,91.91272117,0,0,,,
9.392,293,109.2837897,0,0,,,
9.396,293,102.3388309,0,0,,,
9.4,293,74.93552031,0,0,,,
9.404,293,71.18530577,0,0,,,
9.408,294,82.88882232,0,0,,,
9.412,294,82.71955262,0,0,,,
9.416,294,80.7455135,0,0,,,
9.42,294,85.82185855,0,0,,,
9.424,294,78.23350068,0,0,,,
9.428,294,73.4346446,0,0,,,
9.432,294,86.91047439,0,0,,,
9.436,294,88.5878544,0,0,,,
9.44,295,84.00142267,0,0,,,
9.444,295,80.92874627,0,0,,,
9.448,295,64.72744314,0,0,,,
9.452,295,44.33257768,0,0,,,
9.456,295,47.10156338,0,0,,,
9.46,295,61.88214728,0,0,,,
9.464,295,75.05434611,0,0,,,
9.468,295,66.16497833,0,0,,,
9.472,296,64.15976116,0,0,,,
9.476,296,86.17166203,0,0,,,
9.48,296,82.38077033,0,0,,,
9.484,296,58.48614454,0,0,,,
9.488,296,61.53150673,0,0,,,
9.492,296,67.70552163,0,0,,,
9.496,296,60.40624137,0,0,,,
9.5,296,46.72547445,0,0,,,
9.504,297,29.43279131,0,0,,,
9.508,297,24.32542166,0,0,,,
9.512,297,18.52841773,0,0,,,
9.516,297,5.466714654,0,0,,,
9.52,297,5.168036262,0,0,,,
9.524,297,13.69234887,0,0,,,
9.528,297,11.47822711,0,0,,,
9.532,297,-1.380730592,0,0,,,
9.536,298,3.567683675,0,0,,,
9.54,298,17.89437091,0,0,,,
9.544,298,7.255504998,0,0,,,
9.548,298,-15.06746049,0,0,,,
9.552,298,-48.72865274,0,0,,,
9.556,298,-58.33670251,0,0,,,
9.56,298,-31.50841856,0,0,,,
9.564,298,-17.19671963,0,0,,,
9.568,299,-22.00451239,0,0,,,
9.572,299,-37.35806579,0,0,,,
9.576,299,-50.89686872,0,0,,,
9.58,299,-29.06482593,0,0,,,
9.584,299,-7.240099105,0,0,,,
9.588,299,2.076459813,0,0,,,
9.592,299,11.96108092,0,0,,,
9.596,299,5.980562569,0,0,,,
9.6,300,-10.58688385,0,0,,,
9.604,300,-13.84274324,0,0,,,
9.608,300,-10.30108634,0,0,,,
9.612,300,-26.82946704,0,0,,,
9.616,300,-55.19536896,0,0,,,
9.62,300,-54.21175842,0,0,,,
9.624,300,-33.22773009,0,0,,,
9.628,300,-40.34835643,0,0,,,
9.632,301,-48.68872894,0,0,,,
9.636,301,-52.79811488,0,0,,,
9.64,301,-49.6102149,0,0,,,
9.644,301,-47.04473569,0,0,,,
9.648,301,-67.24532323,0,0,,,
9.652,301,-64.81610945,0,0,,,
9.656,301,-57.23079994,0,0,,,
9.66,301,-72.76875271,0,0,,,
9.664,302,-48.03509274,0,0,,,
9.668,302,-53.60560206,0,0,,,
9.672,302,-108.4807914,0,0,,,
9.676,302,-96.19942289,0,0,,,
9.68,302,-63.71527364,0,0,,,
9.684,302,-67.09067172,0,0,,,
9.688,302,-30.34476718,0,0,,,
9.692,302,19.49132615,0,0,,,
9.696,303,9.058673069,0,0,,,
9.7,303,-23.84920143,0,0,,,
9.704,303,-35.17847719,0,0,,,
9.708,303,-17.31145614,0,0,,,
9.712,303,29.57292284,0,0,,,
9.716,303,68.74748777,0,0,,,
9.72,303,58.33522508,0,0,,,
9.724,303,24.43126896,0,0,,,
9.728,304,35.4941231,0,0,,,
9.732,304,84.64419215,0,0,,,
9.736,304,106.1385093,0,0,,,
9.74,304,143.5227923,0,0,,,
9.744,304,179.231323,0,0,,,
9.748,304,140.0994876,0,0,,,
9.752,304,114.133517,0,0,,,
9.756,304,157.2704997,0,0,,,
9.76,305,168.4071005,0,0,,,
9.764,305,147.6650591,0,0,,,
9.768,305,133.1528799,0,0,,,
9.772,305,115.2775034,0,0,,,
9.776,305,120.5217254,0,0,,,
9.78,305,148.3808026,0,0,,,
9.784,305,131.1549656,0,0,,,
9.788,305,71.62894504,0,0,,,
9.792,306,55.54948316,0,0,,,
9.796,306,53.90164793,0,0,,,
9.8,306,21.09660882,0,0,,,
9.804,306,19.73633898,0,0,,,
9.808,306,33.44462783,0,0,,,
9.812,306,7.147817931,0,0,,,
9.816,306,-6.479373251,0,0,,,
9.82,306,-12.28541017,0,0,,,
9.824,307,-21.59459665,0,0,,,
9.828,307,-17.43718438,0,0,,,
9.832,307,-16.35067408,0,0,,,
9.836,307,-9.317014279,0,0,,,
9.84,307,-12.73271476,0,0,,,
9.844,307,-53.00881917,0,0,,,
9.848,307,-50.75551122,0,0,,,
9.852,307,-17.20035976,0,0,,,
9.856,308,-9.973866433,0,0,,,
9.86,308,-5.687404266,0,0,,,
9.864,308,-14.77713816,0,0,,,
9.868,308,-52.65301236,0,0,,,
9.872,308,-85.93311073,0,0,,,
9.876,308,-88.30627887,0,0,,,
9.88,308,-71.5229282,0,0,,,
9.884,308,-93.1686754,0,0,,,
9.888,309,-152.4557672,0,0,,,
9.892,309,-164.6328171,0,0,,,
9.896,309,-148.1224569,0,0,,,
9.9,309,-165.064989,0,0,,,
9.904,309,-216.5054763,0,0,,,
9.908,309,-244.8079441,0,0,,,
9.912,309,-220.2009102,0,0,,,
9.916,309,-190.7844522,0,0,,,
9.92,310,-186.6302372,0,0,,,
9.924,310,-150.9946663,0,0,,,
9.928,310,-94.94353885,0,0,,,
9.932,310,-46.2673996,0,0,,,
9.936,310,-6.077925173,0,0,,,
9.94,310,3.309331753,0,0,,,
9.944,310,8.401665094,0,0,,,
9.948,310,31.33717198,0,0,,,
9.952,311,37.9340349,0,0,,,
9.956,311,26.35250913,0,0,,,
9.96,311,43.76936744,0,0,,,
9.964,311,100.3644542,0,0,,,
9.968,311,110.7207139,0,0,,,
9.972,311,96.75268378,0,0,,,
9.976,311,145.7487014,0,0,,,
9.98,311,203.8832177,0,0,,,
9.984,312,227.6154121,0,0,,,
9.988,312,231.2548715,0,0,,,
9.992,312,258.9744156,0,0,,,
9.996,312,325.4334571,0,0,,,
10,312,346.3797301,0,0,,,
10.004,312,285.0136937,0,0,,,
10.008,312,246.5393466,0,0,,,
10.012,312,271.7099467,0,0,,,
10.016,313,318.919387,0,0,,,
10.02,313,345.5032512,0,0,,,
10.024,313,347.4336384,0,0,,,
10.028,313,335.0054988,0,0,,,
10.032,313,324.3437996,0,0,,,
10.036,313,330.0755901,0,0,,,
10.04,313,323.2947313,0,0,,,
10.044,313,287.1769828,0,0,,,
10.048,314,280.3637759,0,0,,,
10.052,314,284.9931731,0,0,,,
10.056,314,247.6838764,0,0,,,
10.06,314,217.6162451,0,0,,,
10.064,314,212.8959417,0,0,,,
10.068,314,196.4275288,0,0,,,
10.072,314,175.5335177,0,0,,,
10.076,314,162.0811443,0,0,,,
10.08,315,126.3111846,0,0,,,
10.084,315,109.5063597,0,0,,,
10.088,315,109.8178648,0,0,,,
10.092,315,100.1741615,0,0,,,
10.096,315,117.2859045,0,0,,,
10.1,315,134.0229689,0,0,,,
10.104,315,109.1770453,0,0,,,
10.108,315,89.76681585,0,0,,,
10.112,316,98.0796582,0,0,,,
10.116,316,108.6319441,0,0,,,
10.12,316,113.5373172,0,0,,,
10.124,316,125.8251192,0,0,,,
10.128,316,140.9861176,0,0,,,
10.132,316,163.0659859,0,0,,,
10.136,316,161.2712564,0,0,,,
10.14,316,136.5157893,0,0,,,
10.144,317,158.8996962,0,0,,,
10.148,317,207.9988412,0,0,,,
10.152,317,220.1866363,0,0,,,
10.156,317,211.8841439,0,0,,,
10.16,317,207.366131,0,0,,,
10.164,317,203.7512063,0,0,,,
10.168,317,241.0811086,0,0,,,
10.172,317,298.0709144,0,0,,,
10.176,318,297.5373162,0,0,,,
10.18,318,249.3263277,0,0,,,
10.184,318,221.2486156,0,0,,,
10.188,318,212.5712073,0,0,,,
10.192,318,202.7298302,0,0,,,
10.196,318,202.3072786,0,0,,,
10.2,318,206.2806954,0,0,,,
10.204,318,182.9957501,0,0,,,
10.208,319,162.7508227,0,0,,,
10.212,319,178.63901,0,0,,,
10.216,319,195.3058898,0,0,,,
10.22,319,168.2074716,0,0,,,
10.224,319,131.5887422,0,0,,,
10.228,319,90.24782354,0,0,,,
10.232,319,43.87331699,0,0,,,
10.236,319,40.59237014,0,0,,,
10.24,320,35.13330168,0,0,,,
10.244,320,17.13919741,0,0,,,
10.248,320,24.82106126,0,0,,,
10.252,320,39.74502038,0,0,,,
10.256,320,43.94416536,0,0,,,
10.26,320,25.73881229,0,0,,,
10.264,320,-2.875286741,0,0,,,
10.268,320,-7.836607555,0,0,,,
10.272,321,-10.68592462,0,0,,,
10.276,321,2.791372557,0,0,,,
10.28,321,37.17470278,0,0,,,
10.284,321,37.10584082,0,0,,,
10.288,321,6.233620033,0,0,,,
10.292,321,6.889270248,0,0,,,
10.296,321,25.35811436,0,0,,,
10.3,321,48.85733355,0,0,,,
10.304,322,82.39839363,0,0,,,
10.308,322,98.69597968,0,0,,,
10.312,322,78.60348507,0,0,,,
10.316,322,58.81953627,0,0,,,
10.32,322,85.91965955,0,0,,,
10.324,322,113.1433211,0,0,,,
10.328,322,93.40028563,0,0,,,
10.332,322,76.74517483,0,0,,,
10.336,323,91.16940432,0,0,,,
10.34,323,99.32032617,0,0,,,
10.344,323,90.70587212,0,0,,,
10.348,323,71.92785283,0,0,,,
10.352,323,66.4333335,0,0,,,
10.356,323,75.16466428,0,0,,,
10.36,323,92.40774128,0,0,,,
10.364,323,112.1757019,0,0,,,
10.368,324,118.146845,0,0,,,
10.372,324,87.3042633,0,0,,,
10.376,324,49.35076675,0,0,,,
10.38,324,22.27156246,0,0,,,
10.384,324,6.916636144,0,0,,,
10.388,324,2.487220514,0,0,,,
10.392,324,17.11970665,0,0,,,
10.396,324,58.94675671,0,0,,,
10.4,325,85.71080761,0,0,,,
10.404,325,74.80927008,0,0,,,
10.408,325,55.42831058,0,0,,,
10.412,325,53.57129699,0,0,,,
10.416,325,76.92896712,0,0,,,
10.42,325,90.88461109,0,0,,,
10.424,325,74.08938291,0,0,,,
10.428,325,64.31041817,0,0,,,
10.432,326,78.46971582,0,0,,,
10.436,326,94.80318951,0,0,,,
10.44,326,70.1774867,0,0,,,
10.444,326,43.39311461,0,0,,,
10.448,326,52.01952844,0,0,,,
10.452,326,53.40200654,0,0,,,
10.456,326,45.37401594,0,0,,,
10.46,326,65.78365313,0,0,,,
10.464,327,73.17515496,0,0,,,
10.468,327,61.21405801,0,0,,,
10.472,327,68.57892876,0,0,,,
10.476,327,82.83981364,0,0,,,
10.48,327,76.40989491,0,0,,,
10.484,327,62.86284409,0,0,,,
10.488,327,60.82754404,0,0,,,
10.492,327,62.66477427,0,0,,,
10.496,328,52.64080301,0,0,,,
10.5,328,47.03894219,0,0,,,
10.504,328,54.28194587,0,0,,,
10.508,328,37.40063837,0,0,,,
10.512,328,7.908787215,0,0,,,
10.516,328,19.54993944,0,0,,,
10.52,328,49.68658845,0,0,,,
10.524,328,38.74578925,0,0,,,
10.528,329,22.1020006,0,0,,,
10.532,329,16.88396546,0,0,,,
10.536,329,25.07236159,0,0,,,
10.54,329,58.81588424,0,0,,,
10.544,329,84.11635891,0,0,,,
10.548,329,64.95702675,0,0,,,
10.552,329,49.15996674,0,0,,,
10.556,329,60.65735072,0,0,,,
10.56,330,56.72336748,0,0,,,
10.564,330,33.64751162,0,0,,,
10.568,330,31.84346029,0,0,,,
10.572,330,42.84717292,0,0,,,
10.576,330,44.19981832,0,0,,,
10.58,330,39.86924499,0,0,,,
10.584,330,34.13802048,0,0,,,
10.588,330,21.19856296,0,0,,,
10.592,331,21.15509827,0,0,,,
10.596,331,55.62458866,0,0,,,
10.6,331,71.55119907,0,0,,,
10.604,331,41.13765547,0,0,,,
10.608,331,15.03049828,0,0,,,
10.612,331,25.19892253,0,0,,,
10.616,331,42.53080624,0,0,,,
10.62,331,40.17040964,0,0,,,
10.624,332,28.95653509,0,0,,,
10.628,332,32.35434996,0,0,,,
10.632,332,29.38343601,0,0,,,
10.636,332,34.01821418,0,0,,,
10.64,332,42.82497576,0,0,,,
10.644,332,24.17185695,0,0,,,
10.648,332,0.65374729,0,0,,,
10.652,332,3.98999847,0,0,,,
10.656,333,7.699743119,0,0,,,
10.66,333,11.54617815,0,0,,,
10.664,333,30.00649425,0,0,,,
10.668,333,30.97709288,0,0,,,
10.672,333,3.667625274,0,0,,,
10.676,333,-5.624421096,0,0,,,
10.68,333,-11.94308534,0,0,,,
10.684,333,-38.81663171,0,0,,,
10.688,334,-23.73074647,0,0,,,
10.692,334,8.210395527,0,0,,,
10.696,334,0.314197154,0,0,,,
10.7,334,-21.67222815,0,0,,,
10.704,334,-19.88103828,0,0,,,
10.708,334,5.266955779,0,0,,,
10.712,334,13.12947815,0,0,,,
10.716,334,-13.84232809,0,0,,,
10.72,335,-20.80359433,0,0,,,
10.724,335,-26.73139078,0,0,,,
10.728,335,-32.07945743,0,0,,,
10.732,335,-15.13063115,0,0,,,
10.736,335,5.320895437,0,0,,,
10.74,335,28.37006578,0,0,,,
10.744,335,44.37957375,0,0,,,
10.748,335,36.79771327,0,0,,,
10.752,336,11.60528905,0,0,,,
10.756,336,0.058726676,0,0,,,
10.76,336,40.89319807,0,0,,,
10.764,336,71.47898268,0,0,,,
10.768,336,36.84247484,0,0,,,
10.772,336,11.14239545,0,0,,,
10.776,336,7.230665085,0,0,,,
10.78,336,-9.934734227,0,0,,,
10.784,337,-3.181856631,0,0,,,
10.788,337,27.86749204,0,0,,,
10.792,337,26.37019888,0,0,,,
10.796,337,12.00023286,0,0,,,
10.8,337,0.355884173,0,0,,,
10.804,337,-24.4637974,0,0,,,
10.808,337,-25.7984453,0,0,,,
10.812,337,-6.443117127,0,0,,,
10.816,338,-6.935803245,0,0,,,
10.82,338,-9.275617349,0,0,,,
10.824,338,-33.29780794,0,0,,,
10.828,338,-43.34053139,0,0,,,
10.832,338,-43.06010843,0,0,,,
10.836,338,-74.75096423,0,0,,,
10.84,338,-64.91502963,0,0,,,
10.844,338,-16.39864783,0,0,,,
10.848,339,-8.095967493,0,0,,,
10.852,339,-19.66893808,0,0,,,
10.856,339,-30.88273859,0,0,,,
10.86,339,-42.4695401,0,0,,,
10.864,339,-34.05596331,0,0,,,
10.868,339,-25.47327053,0,0,,,
10.872,339,-58.14092218,0,0,,,
10.876,339,-97.23016754,0,0,,,
10.88,340,-105.6176831,0,0,,,
10.884,340,-110.904383,0,0,,,
10.888,340,-101.5391819,0,0,,,
10.892,340,-95.11101553,0,0,,,
10.896,340,-119.0236238,0,0,,,
10.9,340,-144.124637,0,0,,,
10.904,340,-124.7854564,0,0,,,
10.908,340,-115.6235707,0,0,,,
10.912,341,-146.7710592,0,0,,,
10.916,341,-168.0101982,0,0,,,
10.92,341,-166.661154,0,0,,,
10.924,341,-148.3575163,0,0,,,
10.928,341,-104.0675595,0,0,,,
10.932,341,-59.15738251,0,0,,,
10.936,341,-45.8978237,0,0,,,
10.94,341,-68.30414323,0,0,,,
10.944,342,-64.33841721,0,0,,,
10.948,342,-39.62252668,0,0,,,
10.952,342,-47.22471985,0,0,,,
10.956,342,-52.65299785,0,0,,,
10.96,342,-69.65370291,0,0,,,
10.964,342,-74.84956175,0,0,,,
10.968,342,-64.86278885,0,0,,,
10.972,342,-82.07477842,0,0,,,
10.976,343,-65.35065556,0,0,,,
10.98,343,-19.23234939,0,0,,,
10.984,343,-16.84904147,0,0,,,
10.988,343,-24.8183931,0,0,,,
10.992,343,-17.80435082,0,0,,,
10.996,343,-27.29850109,0,0,,,
11,343,-49.59569209,0,0,,,
11.004,343,-19.97520314,0,0,,,
11.008,344,16.99835232,0,0,,,
11.012,344,12.78769018,0,0,,,
11.016,344,13.72797425,0,0,,,
11.02,344,27.89967127,0,0,,,
11.024,344,38.54549742,0,0,,,
11.028,344,57.71441726,0,0,,,
11.032,344,77.86517035,0,0,,,
11.036,344,85.0892838,0,0,,,
11.04,345,111.5043831,0,0,,,
11.044,345,144.2225443,0,0,,,
11.048,345,134.1816445,0,0,,,
11.052,345,96.03464576,0,0,,,
11.056,345,77.60030413,0,0,,,
11.06,345,83.93391872,0,0,,,
11.064,345,100.4298922,0,0,,,
11.068,345,117.4945913,0,0,,,
11.072,346,131.2163001,0,0,,,
11.076,346,119.5994085,0,0,,,
11.08,346,85.80272607,0,0,,,
11.084,346,80.32719195,0,0,,,
11.088,346,119.4916289,0,0,,,
11.092,346,140.4028763,0,0,,,
11.096,346,120.8462945,0,0,,,
11.1,346,97.39591102,0,0,,,
11.104,347,93.74332813,0,0,,,
11.108,347,98.39576269,0,0,,,
11.112,347,111.2427616,0,0,,,
11.116,347,110.1193795,0,0,,,
11.12,347,86.78582946,0,0,,,
11.124,347,65.1912369,0,0,,,
11.128,347,58.52063111,0,0,,,
11.132,347,70.18420285,0,0,,,
11.136,348,79.24369318,0,0,,,
11.14,348,63.08364604,0,0,,,
11.144,348,40.99542708,0,0,,,
11.148,348,45.61914915,0,0,,,
11.152,348,58.68851255,0,0,,,
11.156,348,39.12446516,0,0,,,
11.16,348,15.96311932,0,0,,,
11.164,348,20.72845499,0,0,,,
11.168,349,12.53710294,0,0,,,
11.172,349,24.73947094,0,0,,,
11.176,349,39.30891651,0,0,,,
11.18,349,4.578201243,0,0,,,
11.184,349,-10.10582846,0,0,,,
11.188,349,31.26701457,0,0,,,
11.192,349,36.91457693,0,0,,,
11.196,349,33.67578375,0,0,,,
11.2,350,61.80804853,0,0,,,
11.204,350,66.83732899,0,0,,,
11.208,350,55.73998074,0,0,,,
11.212,350,52.92823055,0,0,,,
11.216,350,39.76376429,0,0,,,
11.22,350,24.67092265,0,0,,,
11.224,350,22.13749513,0,0,,,
11.228,350,19.71176944,0,0,,,
11.232,351,29.05333363,0,0,,,
11.236,351,43.46533931,0,0,,,
11.24,351,46.52284506,0,0,,,
11.244,351,35.39878244,0,0,,,
11.248,351,29.05200237,0,0,,,
11.252,351,25.49039618,0,0,,,
11.256,351,11.20509944,0,0,,,
11.26,351,6.187165044,0,0,,,
11.264,352,32.12798951,0,0,,,
11.268,352,39.78590614,0,0,,,
11.272,352,31.8808031,0,0,,,
11.276,352,27.46556488,0,0,,,
11.28,352,23.42939587,0,0,,,
11.284,352,25.49497232,0,0,,,
11.288,352,11.82576912,0,0,,,
11.292,352,9.010057111,0,0,,,
11.296,353,30.60314208,0,0,,,
11.3,353,14.21871529,0,0,,,
11.304,353,-7.443616943,0,0,,,
11.308,353,2.497864169,0,0,,,
11.312,353,25.97802904,0,0,,,
11.316,353,11.74485653,0,0,,,
11.32,353,-10.85592072,0,0,,,
11.324,353,48.72761603,0,0,,,
11.328,354,95.59451387,0,0,,,
11.332,354,73.27798264,0,0,,,
11.336,354,44.769644,0,0,,,
11.34,354,39.58591318,0,0,,,
11.344,354,36.2735151,0,0,,,
11.348,354,51.70573221,0,0,,,
11.352,354,104.5083504,0,0,,,
11.356,354,137.1335674,0,0,,,
11.36,355,145.6368131,0,0,,,
11.364,355,175.9522252,0,0,,,
11.368,355,202.4120799,0,0,,,
11.372,355,236.1710509,0,0,,,
11.376,355,282.1321929,0,0,,,
11.38,355,315.5939426,0,0,,,
11.384,355,330.4359045,0,0,,,
11.388,355,342.460677,0,0,,,
11.392,356,343.1410371,0,0,,,
11.396,356,335.6768354,0,0,,,
11.4,356,309.3586119,0,0,,,
11.404,356,258.611909,0,0,,,
11.408,356,244.0094304,0,0,,,
11.412,356,246.4826847,0,0,,,
11.416,356,221.6883066,0,0,,,
11.42,356,169.8110348,0,0,,,
11.424,357,139.8145071,0,0,,,
11.428,357,128.9719178,0,0,,,
11.432,357,101.8299237,0,0,,,
11.436,357,67.05581795,0,0,,,
11.44,357,19.80014507,0,0,,,
11.444,357,-23.4692182,0,0,,,
11.448,357,-36.59939214,0,0,,,
11.452,357,-48.65275625,0,0,,,
11.456,358,-69.62537937,0,0,,,
11.46,358,-101.3617659,0,0,,,
11.464,358,-130.1433064,0,0,,,
11.468,358,-150.3952101,0,0,,,
11.472,358,-154.0493746,0,0,,,
11.476,358,-145.1708869,0,0,,,
11.48,358,-135.8800578,0,0,,,
11.484,358,-117.2898594,0,0,,,
11.488,359,-95.85800109,0,0,,,
11.492,359,-102.1293397,0,0,,,
11.496,359,-117.8947899,0,0,,,
11.5,359,-119.2926109,0,0,,,
11.504,359,-118.7505077,0,0,,,
11.508,359,-109.4104928,0,0,,,
11.512,359,-111.9839036,0,0,,,
11.516,359,-117.6548315,0,0,,,
11.52,360,-109.6625687,0,0,,,
11.524,360,-85.75058474,0,0,,,
11.528,360,-63.22386815,0,0,,,
11.532,360,-65.14712364,0,0,,,
11.536,360,-84.23278298,0,0,,,
11.54,360,-75.26931189,0,0,,,
11.544,360,-60.64020286,0,0,,,
11.548,360,-63.13674524,0,0,,,
11.552,361,-61.55117697,0,0,,,
11.556,361,-54.76051039,0,0,,,
11.56,361,-46.86076529,0,0,,,
11.564,361,-42.183627,0,0,,,
11.568,361,-52.8623937,0,0,,,
11.572,361,-46.65942856,0,0,,,
11.576,361,-16.68762307,0,0,,,
11.58,361,2.980304296,0,0,,,
11.584,362,15.19650202,0,0,,,
11.588,362,16.06281988,0,0,,,
11.592,362,-6.842879999,0,0,,,
11.596,362,-10.52246524,0,0,,,
11.6,362,35.04394583,0,0,,,
11.604,362,35.34741318,0,0,,,
11.608,362,-1.697111338,0,0,,,
11.612,362,-0.839285535,0,0,,,
11.616,363,-2.957061721,0,0,,,
11.62,363,-21.12555447,0,0,,,
11.624,363,8.826957267,0,0,,,
11.628,363,42.08487685,0,0,,,
11.632,363,30.05385813,0,0,,,
11.636,363,15.82441656,0,0,,,
11.64,363,26.51404142,0,0,,,
11.644,363,43.51438198,0,0,,,
11.648,364,47.52755858,0,0,,,
11.652,364,39.09811509,0,0,,,
11.656,364,43.6600344,0,0,,,
11.66,364,54.56485883,0,0,,,
11.664,364,59.68705598,0,0,,,
11.668,364,64.7313077,0,0,,,
11.672,364,72.22006184,0,0,,,
11.676,364,80.95500267,0,0,,,
11.68,365,66.92671488,0,0,,,
11.684,365,49.23549684,0,0,,,
11.688,365,64.27322749,0,0,,,
11.692,365,71.76336839,0,0,,,
11.696,365,54.7875741,0,0,,,
11.7,365,66.91113907,0,0,,,
11.704,365,51.14900888,0,0,,,
11.708,365,14.33790156,0,0,,,
11.712,366,27.49844933,0,0,,,
11.716,366,69.33378821,0,0,,,
11.72,366,93.34925583,0,0,,,
11.724,366,102.2166082,0,0,,,
11.728,366,106.4116662,0,0,,,
11.732,366,104.1801423,0,0,,,
11.736,366,91.3618741,0,0,,,
11.74,366,77.83860563,0,0,,,
11.744,367,74.19021405,0,0,,,
11.748,367,65.40567906,0,0,,,
11.752,367,48.84916912,0,0,,,
11.756,367,51.54003111,0,0,,,
11.76,367,74.2433335,0,0,,,
11.764,367,91.53374119,0,0,,,
11.768,367,92.77506557,0,0,,,
11.772,367,86.64767567,0,0,,,
11.776,368,81.47828945,0,0,,,
11.78,368,76.47729162,0,0,,,
11.784,368,71.47073083,0,0,,,
11.788,368,65.31234809,0,0,,,
11.792,368,71.45346667,0,0,,,
11.796,368,59.70276111,0,0,,,
11.8,368,28.46020551,0,0,,,
11.804,368,20.32201728,0,0,,,
11.808,369,26.89931917,0,0,,,
11.812,369,19.48779019,0,0,,,
11.816,369,32.73386843,0,0,,,
11.82,369,50.14026507,0,0,,,
11.824,369,40.18282119,0,0,,,
11.828,369,34.49849167,0,0,,,
11.832,369,42.89699978,0,0,,,
11.836,369,36.34733024,0,0,,,
11.84,370,30.82808902,0,0,,,
11.844,370,36.90912069,0,0,,,
11.848,370,40.38255377,0,0,,,
11.852,370,45.60034428,0,0,,,
11.856,370,56.08353319,0,0,,,
11.86,370,63.82620067,0,0,,,
11.864,370,57.7666916,0,0,,,
11.868,370,37.40747875,0,0,,,
11.872,371,22.11560138,0,0,,,
11.876,371,26.88585301,0,0,,,
11.88,371,23.59971335,0,0,,,
11.884,371,43.2832115,0,0,,,
11.888,371,65.87746822,0,0,,,
11.892,371,44.31942681,0,0,,,
11.896,371,19.22426237,0,0,,,
11.9,371,-1.526239218,0,0,,,
11.904,372,-18.24916621,0,0,,,
11.908,372,11.27749733,0,0,,,
11.912,372,32.17650236,0,0,,,
11.916,372,40.27047437,0,0,,,
11.92,372,43.25742371,0,0,,,
11.924,372,25.36863864,0,0,,,
11.928,372,18.53422656,0,0,,,
11.932,372,15.42983219,0,0,,,
11.936,373,31.38190831,0,0,,,
11.94,373,45.61256693,0,0,,,
11.944,373,28.22540315,0,0,,,
11.948,373,34.0271131,0,0,,,
11.952,373,47.90108525,0,0,,,
11.956,373,24.55881768,0,0,,,
11.96,373,4.922514507,0,0,,,
11.964,373,10.02157438,0,0,,,
11.968,374,10.92552919,0,0,,,
11.972,374,6.783059117,0,0,,,
11.976,374,31.64081893,0,0,,,
11.98,374,28.07434531,0,0,,,
11.984,374,5.062218012,0,0,,,
11.988,374,19.42424206,0,0,,,
11.992,374,40.33715432,0,0,,,
11.996,374,50.68623817,0,0,,,
12,375,55.51069051,0,0,,,
12.004,375,52.41763608,0,0,,,
12.008,375,41.26744188,0,0,,,
12.012,375,20.84132119,0,0,,,
12.016,375,30.59984463,0,0,,,
12.02,375,56.31497954,0,0,,,
12.024,375,57.68755171,0,0,,,
12.028,375,48.85898089,0,0,,,
12.032,376,29.74990917,0,0,,,
12.036,376,0.400095113,0,0,,,
12.04,376,14.95840061,0,0,,,
12.044,376,54.77073156,0,0,,,
12.048,376,43.12337506,0,0,,,
12.052,376,29.57791347,0,0,,,
12.056,376,56.13179828,0,0,,,
12.06,376,81.9715153,0,0,,,
12.064,377,79.09215548,0,0,,,
12.068,377,76.86220617,0,0,,,
12.072,377,60.10239315,0,0,,,
12.076,377,31.18412435,0,0,,,
12.08,377,16.9588941,0,0,,,
12.084,377,15.43852621,0,0,,,
12.088,377,16.92305611,0,0,,,
12.092,377,21.16926495,0,0,,,
12.096,378,27.41611042,0,0,,,
12.1,378,36.77148171,0,0,,,
12.104,378,33.7559508,0,0,,,
12.108,378,16.4446611,0,0,,,
12.112,378,33.68132145,0,0,,,
12.116,378,61.36723343,0,0,,,
12.12,378,49.42711383,0,0,,,
12.124,378,29.43195111,0,0,,,
12.128,379,21.1266491,0,0,,,
12.132,379,29.88724651,0,0,,,
12.136,379,31.22037678,0,0,,,
12.14,379,29.68740766,0,0,,,
12.144,379,43.92710846,0,0,,,
12.148,379,36.36652992,0,0,,,
12.152,379,42.26463032,0,0,,,
12.156,379,46.9907303,0,0,,,
12.16,380,31.19817609,0,0,,,
12.164,380,29.72493634,0,0,,,
12.168,380,44.39883804,0,0,,,
12.172,380,63.28868568,0,0,,,
12.176,380,67.21126073,0,0,,,
12.18,380,44.61574315,0,0,,,
12.184,380,46.41928217,0,0,,,
12.188,380,63.44775854,0,0,,,
12.192,381,60.37373496,0,0,,,
12.196,381,68.86878157,0,0,,,
12.2,381,62.04250977,0,0,,,
12.204,381,24.62211141,0,0,,,
12.208,381,38.44668408,0,0,,,
12.212,381,85.00293437,0,0,,,
12.216,381,86.76624288,0,0,,,
12.22,381,64.91495192,0,0,,,
12.224,382,51.18012273,0,0,,,
12.228,382,39.9761878,0,0,,,
12.232,382,45.39447756,0,0,,,
12.236,382,63.06326761,0,0,,,
12.24,382,54.51852288,0,0,,,
12.244,382,53.7423595,0,0,,,
12.248,382,67.96280806,0,0,,,
12.252,382,56.74991861,0,0,,,
12.256,383,29.99194463,0,0,,,
12.26,383,29.22076584,0,0,,,
12.264,383,11.57688006,0,0,,,
12.268,383,6.050818124,0,0,,,
12.272,383,34.98275779,0,0,,,
12.276,383,40.03957892,0,0,,,
12.28,383,42.91884487,0,0,,,
12.284,383,48.92692381,0,0,,,
12.288,384,64.19741915,0,0,,,
12.292,384,96.58969768,0,0,,,
12.296,384,85.41825757,0,0,,,
12.3,384,70.15358852,0,0,,,
12.304,384,98.54478358,0,0,,,
12.308,384,101.4511677,0,0,,,
12.312,384,97.76188428,0,0,,,
12.316,384,111.0164372,0,0,,,
12.32,385,108.446402,0,0,,,
12.324,385,96.90181744,0,0,,,
12.328,385,91.07224365,0,0,,,
12.332,385,105.2737078,0,0,,,
12.336,385,133.9291027,0,0,,,
12.34,385,123.3730591,0,0,,,
12.344,385,100.5611322,0,0,,,
12.348,385,112.2238932,0,0,,,
12.352,386,126.9665859,0,0,,,
12.356,386,108.6119123,0,0,,,
12.36,386,106.2054294,0,0,,,
12.364,386,109.6152359,0,0,,,
12.368,386,93.78928342,0,0,,,
12.372,386,92.28952819,0,0,,,
12.376,386,86.85920795,0,0,,,
12.38,386,72.56981197,0,0,,,
12.384,387,79.10612734,0,0,,,
12.388,387,85.93000786,0,0,,,
12.392,387,67.89807893,0,0,,,
12.396,387,54.5885593,0,0,,,
12.4,387,70.11569888,0,0,,,
12.404,387,89.97909212,0,0,,,
12.408,387,82.38934835,0,0,,,
12.412,387,81.96229172,0,0,,,
12.416,388,75.61761822,0,0,,,
12.42,388,33.51883112,0,0,,,
12.424,388,20.25390556,0,0,,,
12.428,388,70.78189776,0,0,,,
12.432,388,85.19162813,0,0,,,
12.436,388,65.50479359,0,0,,,
12.44,388,79.465906,0,0,,,
12.444,388,80.66297942,0,0,,,
12.448,389,64.96521805,0,0,,,
12.452,389,70.81724616,0,0,,,
12.456,389,60.00931158,0,0,,,
12.46,389,40.5032821,0,0,,,
12.464,389,41.68364199,0,0,,,
12.468,389,41.88055518,0,0,,,
12.472,389,29.97803095,0,0,,,
12.476,389,25.03269859,0,0,,,
12.48,390,22.05241156,0,0,,,
12.484,390,18.27387649,0,0,,,
12.488,390,36.79687898,0,0,,,
12.492,390,29.45985845,0,0,,,
12.496,390,-11.11596806,0,0,,,
12.5,390,-20.19762366,0,0,,,
12.504,390,-26.5030297,0,0,,,
12.508,390,-31.80642347,0,0,,,
12.512,391,15.43383055,0,0,,,
12.516,391,33.17315397,0,0,,,
12.52,391,9.448106999,0,0,,,
12.524,391,-9.771630039,0,0,,,
12.528,391,-26.1825811,0,0,,,
12.532,391,-26.45234116,0,0,,,
12.536,391,-9.046801363,0,0,,,
12.54,391,-8.255607286,0,0,,,
12.544,392,-21.31169521,0,0,,,
12.548,392,-40.3286655,0,0,,,
12.552,392,-51.44012893,0,0,,,
12.556,392,-43.53492063,0,0,,,
12.56,392,-37.93860733,0,0,,,
12.564,392,-42.53603941,0,0,,,
12.568,392,-52.90860341,0,0,,,
12.572,392,-53.20439267,0,0,,,
12.576,393,-46.4424346,0,0,,,
12.58,393,-37.85540455,0,0,,,
12.584,393,-15.99797191,0,0,,,
12.588,393,0.023885074,0,0,,,
12.592,393,-7.862676124,0,0,,,
12.596,393,-1.959700654,0,0,,,
12.6,393,2.858230599,0,0,,,
12.604,393,-16.3219266,0,0,,,
12.608,394,-33.85682988,0,0,,,
12.612,394,-31.07133829,0,0,,,
12.616,394,-25.58407784,0,0,,,
12.62,394,-21.04046369,0,0,,,
12.624,394,-7.771017362,0,0,,,
12.628,394,22.83003318,0,0,,,
12.632,394,47.30045532,0,0,,,
12.636,394,52.62392993,0,0,,,
12.64,395,52.74717405,0,0,,,
12.644,395,60.56224665,0,0,,,
12.648,395,79.31517422,0,0,,,
12.652,395,81.55320911,0,0,,,
12.656,395,75.08490635,0,0,,,
12.66,395,98.15563476,0,0,,,
12.664,395,123.0069982,0,0,,,
12.668,395,124.6059081,0,0,,,
12.672,396,145.5474164,0,0,,,
12.676,396,184.0903215,0,0,,,
12.68,396,205.4017486,0,0,,,
12.684,396,220.6197134,0,0,,,
12.688,396,241.149061,0,0,,,
12.692,396,236.888559,0,0,,,
12.696,396,207.940232,0,0,,,
12.7,396,185.6508419,0,0,,,
12.704,397,219.4597344,0,0,,,
12.708,397,256.027516,0,0,,,
12.712,397,240.4093629,0,0,,,
12.716,397,212.3609418,0,0,,,
12.72,397,194.2975523,0,0,,,
12.724,397,160.5485106,0,0,,,
12.728,397,135.2792136,0,0,,,
12.732,397,117.1136663,0,0,,,
12.736,398,64.67755998,0,0,,,
12.74,398,10.28904177,0,0,,,
12.744,398,-15.00395539,0,0,,,
12.748,398,-33.13010887,0,0,,,
12.752,398,-48.86185307,0,0,,,
12.756,398,-69.85172028,0,0,,,
12.76,398,-111.7277827,0,0,,,
12.764,398,-126.8813599,0,0,,,
12.768,399,-115.5843347,0,0,,,
12.772,399,-123.6254003,0,0,,,
12.776,399,-155.6693734,0,0,,,
12.78,399,-175.9179995,0,0,,,
12.784,399,-186.3544699,0,0,,,
12.788,399,-185.0623771,0,0,,,
12.792,399,-173.2349171,0,0,,,
12.796,399,-185.4445741,0,0,,,
12.8,400,-197.1214438,0,0,,,
12.804,400,-168.3664225,0,0,,,
12.808,400,-141.5795959,0,0,,,
12.812,400,-124.1826606,0,0,,,
12.816,400,-124.5249637,0,0,,,
12.82,400,-131.9876917,0,0,,,
12.824,400,-118.6715761,0,0,,,
12.828,400,-116.5755111,0,0,,,
12.832,401,-106.1689438,0,0,,,
12.836,401,-76.48365718,0,0,,,
12.84,401,-79.35670024,0,0,,,
12.844,401,-87.63847333,0,0,,,
12.848,401,-65.44016654,0,0,,,
12.852,401,-49.50110176,0,0,,,
12.856,401,-37.95498909,0,0,,,
12.86,401,-22.2547664,0,0,,,
12.864,402,-9.530390651,0,0,,,
12.868,402,-16.78147937,0,0,,,
12.872,402,-40.94977949,0,0,,,
12.876,402,-32.74748568,0,0,,,
12.88,402,15.22162246,0,0,,,
12.884,402,30.00254692,0,0,,,
12.888,402,24.33717433,0,0,,,
12.892,402,34.27118396,0,0,,,
12.896,403,31.83013425,0,0,,,
12.9,403,20.30939139,0,0,,,
12.904,403,46.18542113,0,0,,,
12.908,403,56.07188751,0,0,,,
12.912,403,32.56878728,0,0,,,
12.916,403,42.04431966,0,0,,,
12.92,403,59.73476183,0,0,,,
12.924,403,68.95170444,0,0,,,
12.928,404,76.01937937,0,0,,,
12.932,404,71.24764721,0,0,,,
12.936,404,93.25078828,0,0,,,
12.94,404,127.753234,0,0,,,
12.944,404,115.2768835,0,0,,,
12.948,404,92.66483284,0,0,,,
12.952,404,82.88177007,0,0,,,
12.956,404,77.03781636,0,0,,,
12.96,405,101.1483654,0,0,,,
12.964,405,143.0871221,0,0,,,
12.968,405,133.8894187,0,0,,,
12.972,405,97.8330954,0,0,,,
12.976,405,82.21320287,0,0,,,
12.98,405,81.92972437,0,0,,,
12.984,405,69.80215858,0,0,,,
12.988,405,58.88489337,0,0,,,
12.992,406,78.74512344,0,0,,,
12.996,406,111.859756,0,0,,,
13,406,128.7594548,0,0,,,
13.004,406,142.3692145,0,0,,,
13.008,406,134.5086453,0,0,,,
13.012,406,92.93565083,0,0,,,
13.016,406,81.16590877,0,0,,,
13.02,406,91.06268653,0,0,,,
13.024,407,89.09196156,0,0,,,
13.028,407,87.75374367,0,0,,,
13.032,407,82.53835176,0,0,,,
13.036,407,71.32758326,0,0,,,
13.04,407,77.69864698,0,0,,,
13.044,407,83.86947677,0,0,,,
13.048,407,75.83939269,0,0,,,
13.052,407,70.6318047,0,0,,,
13.056,408,68.68287679,0,0,,,
13.06,408,59.84272254,0,0,,,
13.064,408,65.41890602,0,0,,,
13.068,408,77.94217833,0,0,,,
13.072,408,75.48498036,0,0,,,
13.076,408,76.66834709,0,0,,,
13.08,408,95.5441314,0,0,,,
13.084,408,93.80334811,0,0,,,
13.088,409,69.48028483,0,0,,,
13.092,409,41.98767521,0,0,,,
13.096,409,36.00002057,0,0,,,
13.1,409,59.83271079,0,0,,,
13.104,409,67.22451346,0,0,,,
13.108,409,51.8860924,0,0,,,
13.112,409,45.15621648,0,0,,,
13.116,409,52.4976021,0,0,,,
13.12,410,71.66289068,0,0,,,
13.124,410,98.86688265,0,0,,,
13.128,410,104.164002,0,0,,,
13.132,410,71.02377398,0,0,,,
13.136,410,43.93713075,0,0,,,
13.14,410,39.67674063,0,0,,,
13.144,410,24.7354078,0,0,,,
13.148,410,43.53237052,0,0,,,
13.152,411,63.82349347,0,0,,,
13.156,411,48.24221741,0,0,,,
13.16,411,32.08099344,0,0,,,
13.164,411,35.05697272,0,0,,,
13.168,411,56.95648977,0,0,,,
13.172,411,65.02564808,0,0,,,
13.176,411,63.30695852,0,0,,,
13.18,411,76.2695689,0,0,,,
13.184,412,77.23511438,0,0,,,
13.188,412,64.77034281,0,0,,,
13.192,412,45.4510669,0,0,,,
13.196,412,9.823810141,0,0,,,
13.2,412,0.118676686,0,0,,,
13.204,412,39.46468566,0,0,,,
13.208,412,43.86195798,0,0,,,
13.212,412,28.26529868,0,0,,,
13.216,413,43.26430077,0,0,,,
13.22,413,30.69910289,0,0,,,
13.224,413,28.90827495,0,0,,,
13.228,413,48.2375804,0,0,,,
13.232,413,32.94162926,0,0,,,
13.236,413,10.15582463,0,0,,,
13.24,413,26.05564709,0,0,,,
13.244,413,37.49310815,0,0,,,
13.248,414,23.65537458,0,0,,,
13.252,414,18.26365681,0,0,,,
13.256,414,30.51676248,0,0,,,
13.26,414,23.72357205,0,0,,,
13.264,414,20.46296665,0,0,,,
13.268,414,42.50987683,0,0,,,
13.272,414,40.99360461,0,0,,,
13.276,414,13.66212519,0,0,,,
13.28,415,11.83463201,0,0,,,
13.284,415,37.96172337,0,0,,,
13.288,415,56.57977234,0,0,,,
13.292,415,54.57399204,0,0,,,
13.296,415,51.2997173,0,0,,,
13.3,415,58.2931896,0,0,,,
13.304,415,51.33647704,0,0,,,
13.308,415,48.35821047,0,0,,,
13.312,416,44.84129509,0,0,,,
13.316,416,43.43724337,0,0,,,
13.32,416,46.28373539,0,0,,,
13.324,416,28.83984446,0,0,,,
13.328,416,10.71636297,0,0,,,
13.332,416,16.10999671,0,0,,,
13.336,416,22.79729266,0,0,,,
13.34,416,18.75107645,0,0,,,
13.344,417,11.69296385,0,0,,,
13.348,417,27.51737979,0,0,,,
13.352,417,41.57406093,0,0,,,
13.356,417,25.37482567,0,0,,,
13.36,417,21.32146055,0,0,,,
13.364,417,25.06821664,0,0,,,
13.368,417,1.388671221,0,0,,,
13.372,417,-3.633313301,0,0,,,
13.376,418,18.00489431,0,0,,,
13.38,418,19.02078167,0,0,,,
13.384,418,5.729023112,0,0,,,
13.388,418,4.056206708,0,0,,,
13.392,418,-5.67824087,0,0,,,
13.396,418,-40.87284243,0,0,,,
13.4,418,-43.19320107,0,0,,,
13.404,418,-4.163179774,0,0,,,
13.408,419,27.72707656,0,0,,,
13.412,419,31.26194829,0,0,,,
13.416,419,20.6697348,0,0,,,
13.42,419,13.7033813,0,0,,,
13.424,419,14.60217849,0,0,,,
13.428,419,18.45990582,0,0,,,
13.432,419,32.4411886,0,0,,,
13.436,419,27.1022242,0,0,,,
13.44,420,6.241084978,0,0,,,
13.444,420,-2.700794542,0,0,,,
13.448,420,2.435025703,0,0,,,
13.452,420,13.88733767,0,0,,,
13.456,420,8.141846088,0,0,,,
13.46,420,7.835926693,0,0,,,
13.464,420,26.78207376,0,0,,,
13.468,420,13.61373417,0,0,,,
13.472,421,7.051963149,0,0,,,
13.476,421,31.15272524,0,0,,,
13.48,421,12.91083351,0,0,,,
13.484,421,-4.50002826,0,0,,,
13.488,421,11.82036786,0,0,,,
13.492,421,12.78405075,0,0,,,
13.496,421,20.01338627,0,0,,,
13.5,421,24.49383847,0,0,,,
13.504,422,6.267527436,0,0,,,
13.508,422,19.93480708,0,0,,,
13.512,422,37.43441124,0,0,,,
13.516,422,38.14830788,0,0,,,
13.52,422,23.76774712,0,0,,,
13.524,422,16.50685264,0,0,,,
13.528,422,33.03701403,0,0,,,
13.532,422,33.02399898,0,0,,,
13.536,423,15.79028564,0,0,,,
13.54,423,7.717846682,0,0,,,
13.544,423,-0.416603537,0,0,,,
13.548,423,-11.69920518,0,0,,,
13.552,423,-11.06224782,0,0,,,
13.556,423,-3.809622208,0,0,,,
13.56,423,5.33451754,0,0,,,
13.564,423,14.50589209,0,0,,,
13.568,424,30.8908228,0,0,,,
13.572,424,58.52161982,0,0,,,
13.576,424,55.79290666,0,0,,,
13.58,424,26.67098937,0,0,,,
13.584,424,18.9813567,0,0,,,
13.588,424,29.93532666,0,0,,,
13.592,424,55.33291381,0,0,,,
13.596,424,75.06793319,0,0,,,
13.6,425,70.84451826,0,0,,,
13.604,425,46.84206962,0,0,,,
13.608,425,48.82607388,0,0,,,
13.612,425,62.45278754,0,0,,,
13.616,425,41.23678877,0,0,,,
13.62,425,16.1667464,0,0,,,
13.624,425,31.24754076,0,0,,,
13.628,425,45.72438632,0,0,,,
13.632,426,45.94663602,0,0,,,
13.636,426,62.31772772,0,0,,,
13.64,426,83.90648344,0,0,,,
13.644,426,82.26903614,0,0,,,
13.648,426,72.01372089,0,0,,,
13.652,426,95.86156563,0,0,,,
13.656,426,120.7040108,0,0,,,
13.66,426,107.0212244,0,0,,,
13.664,427,80.96521675,0,0,,,
13.668,427,68.30228811,0,0,,,
13.672,427,51.4203909,0,0,,,
13.676,427,38.49387572,0,0,,,
13.68,427,40.70965703,0,0,,,
13.684,427,33.59508272,0,0,,,
13.688,427,28.96221574,0,0,,,
13.692,427,61.91622312,0,0,,,
13.696,428,70.49780944,0,0,,,
13.7,428,59.72358056,0,0,,,
13.704,428,55.82119833,0,0,,,
13.708,428,30.37656466,0,0,,,
13.712,428,16.32242977,0,0,,,
13.716,428,29.77157672,0,0,,,
13.72,428,39.04150253,0,0,,,
13.724,428,51.76648949,0,0,,,
13.728,429,69.75689892,0,0,,,
13.732,429,85.16802823,0,0,,,
13.736,429,110.7756524,0,0,,,
13.74,429,118.6147343,0,0,,,
13.744,429,81.60181991,0,0,,,
13.748,429,60.57866363,0,0,,,
13.752,429,60.49356566,0,0,,,
13.756,429,59.45780038,0,0,,,
13.76,430,72.7899249,0,0,,,
13.764,430,57.61438763,0,0,,,
13.768,430,51.91830273,0,0,,,
13.772,430,69.1794621,0,0,,,
13.776,430,79.65071773,0,0,,,
13.78,430,94.82568306,0,0,,,
13.784,430,102.0068936,0,0,,,
13.788,430,85.48001382,0,0,,,
13.792,431,91.78391401,0,0,,,
13.796,431,103.9978485,0,0,,,
13.8,431,84.83942412,0,0,,,
13.804,431,73.95506628,0,0,,,
13.808,431,93.77941085,0,0,,,
13.812,431,95.36731783,0,0,,,
13.816,431,75.07030538,0,0,,,
13.82,431,80.75129927,0,0,,,
13.824,432,109.2219293,0,0,,,
13.828,432,100.9908826,0,0,,,
13.832,432,64.96056281,0,0,,,
13.836,432,67.16018025,0,0,,,
13.84,432,81.76800554,0,0,,,
13.844,432,82.21491819,0,0,,,
13.848,432,83.61483687,0,0,,,
13.852,432,83.80436578,0,0,,,
13.856,433,58.38446297,0,0,,,
13.86,433,30.20085665,0,0,,,
13.864,433,34.68157446,0,0,,,
13.868,433,58.24284808,0,0,,,
13.872,433,71.89830744,0,0,,,
13.876,433,66.77386962,0,0,,,
13.88,433,51.10358088,0,0,,,
13.884,433,36.25560812,0,0,,,
13.888,434,9.612960183,0,0,,,
13.892,434,9.648284118,0,0,,,
13.896,434,30.3954846,0,0,,,
13.9,434,34.25999255,0,0,,,
13.904,434,33.98489736,0,0,,,
13.908,434,40.90439684,0,0,,,
13.912,434,51.55347704,0,0,,,
13.916,434,47.95315528,0,0,,,
13.92,435,35.47034372,0,0,,,
13.924,435,39.59083884,0,0,,,
13.928,435,46.69002747,0,0,,,
13.932,435,25.85715654,0,0,,,
13.936,435,16.47409012,0,0,,,
13.94,435,40.08847639,0,0,,,
13.944,435,25.5537945,0,0,,,
13.948,435,-9.433519814,0,0,,,
13.952,436,19.38036527,0,0,,,
13.956,436,43.62472138,0,0,,,
13.96,436,40.09520802,0,0,,,
13.964,436,56.22397199,0,0,,,
13.968,436,59.21197372,0,0,,,
13.972,436,33.63633362,0,0,,,
13.976,436,30.32464067,0,0,,,
13.98,436,37.21945434,0,0,,,
13.984,437,38.70453308,0,0,,,
13.988,437,40.70267175,0,0,,,
13.992,437,36.07308026,0,0,,,
13.996,437,39.17142891,0,0,,,
14,437,26.96630686,0,0,,,
14.004,437,-10.09786289,0,0,,,
14.008,437,-14.24737822,0,0,,,
14.012,437,25.11273946,0,0,,,
14.016,438,48.993984,0,0,,,
14.02,438,39.55654786,0,0,,,
14.024,438,34.10161639,0,0,,,
14.028,438,29.22588476,0,0,,,
14.032,438,12.14976985,0,0,,,
14.036,438,33.53336231,0,0,,,
14.04,438,45.98207036,0,0,,,
14.044,438,17.15774478,0,0,,,
14.048,439,12.48975901,0,0,,,
14.052,439,25.740007,0,0,,,
14.056,439,22.03966143,0,0,,,
14.06,439,16.3553066,0,0,,,
14.064,439,31.36219256,0,0,,,
14.068,439,60.38187151,0,0,,,
14.072,439,52.18047878,0,0,,,
14.076,439,51.06556047,0,0,,,
14.08,440,54.20384746,0,0,,,
14.084,440,19.3696157,0,0,,,
14.088,440,16.20368955,0,0,,,
14.092,440,41.34360524,0,0,,,
14.096,440,27.74713223,0,0,,,
14.1,440,7.63240195,0,0,,,
14.104,440,13.12758674,0,0,,,
14.108,440,12.5607972,0,0,,,
14.112,441,23.58716113,0,0,,,
14.116,441,29.61334263,0,0,,,
14.12,441,32.83710937,0,0,,,
14.124,441,64.77895928,0,0,,,
14.128,441,74.85496995,0,0,,,
14.132,441,57.70748715,0,0,,,
14.136,441,60.142475,0,0,,,
14.14,441,60.94456251,0,0,,,
14.144,442,62.45877736,0,0,,,
14.148,442,70.18572004,0,0,,,
14.152,442,74.84236247,0,0,,,
14.156,442,65.12486422,0,0,,,
14.16,442,60.73901757,0,0,,,
14.164,442,62.86826151,0,0,,,
14.168,442,44.03665161,0,0,,,
14.172,442,45.81063359,0,0,,,
14.176,443,68.64395218,0,0,,,
14.18,443,55.12456676,0,0,,,
14.184,443,42.67228374,0,0,,,
14.188,443,45.08163765,0,0,,,
14.192,443,45.69739436,0,0,,,
14.196,443,55.03443961,0,0,,,
14.2,443,55.04762205,0,0,,,
14.204,443,40.29560669,0,0,,,
14.208,444,28.6677139,0,0,,,
14.212,444,53.04105958,0,0,,,
14.216,444,81.73592674,0,0,,,
14.22,444,88.56937998,0,0,,,
14.224,444,70.78206717,0,0,,,
14.228,444,50.77857713,0,0,,,
14.232,444,58.29383163,0,0,,,
14.236,444,60.64826047,0,0,,,
14.24,445,44.63728509,0,0,,,
14.244,445,44.77359295,0,0,,,
14.248,445,40.4774992,0,0,,,
14.252,445,24.828591,0,0,,,
14.256,445,9.478163434,0,0,,,
14.26,445,-3.353441,0,0,,,
14.264,445,-11.85120476,0,0,,,
14.268,445,-4.026467027,0,0,,,
14.272,446,3.489082377,0,0,,,
14.276,446,-22.47728903,0,0,,,
14.28,446,-50.00721509,0,0,,,
14.284,446,-49.17176615,0,0,,,
14.288,446,-29.76976002,0,0,,,
14.292,446,-14.17752976,0,0,,,
14.296,446,-29.13227139,0,0,,,
14.3,446,-67.047862,0,0,,,
14.304,447,-73.82529228,0,0,,,
14.308,447,-47.76405187,0,0,,,
14.312,447,-21.67749681,0,0,,,
14.316,447,-16.86747874,0,0,,,
14.32,447,-22.14440251,0,0,,,
14.324,447,-21.80366547,0,0,,,
14.328,447,-7.547768643,0,0,,,
14.332,447,-5.107382433,0,0,,,
14.336,448,-4.0700673,0,0,,,
14.34,448,4.624447458,0,0,,,
14.344,448,5.712153376,0,0,,,
14.348,448,17.55455764,0,0,,,
14.352,448,5.370154466,0,0,,,
14.356,448,-25.84389301,0,0,,,
14.36,448,-20.56583589,0,0,,,
14.364,448,-6.301864111,0,0,,,
14.368,449,-14.96033154,0,0,,,
14.372,449,-26.83288652,0,0,,,
14.376,449,-9.794126041,0,0,,,
14.38,449,20.86197136,0,0,,,
14.384,449,33.7470383,0,0,,,
14.388,449,38.49947999,0,0,,,
14.392,449,45.15758422,0,0,,,
14.396,449,40.78136084,0,0,,,
14.4,450,31.44102613,0,0,,,
14.404,450,33.42639802,0,0,,,
14.408,450,27.32922488,0,0,,,
14.412,450,44.47543337,0,0,,,
14.416,450,65.54719542,0,0,,,
14.42,450,54.76966644,0,0,,,
14.424,450,43.86585827,0,0,,,
14.428,450,51.53434866,0,0,,,
14.432,451,46.94697165,0,0,,,
14.436,451,36.39726959,0,0,,,
14.44,451,47.07930962,0,0,,,
14.444,451,52.55614953,0,0,,,
14.448,451,32.82409205,0,0,,,
14.452,451,31.64159368,0,0,,,
14.456,451,62.8071699,0,0,,,
14.46,451,83.72953091,0,0,,,
14.464,452,89.18874062,0,0,,,
14.468,452,99.97318038,0,0,,,
14.472,452,83.08549681,0,0,,,
14.476,452,39.57610487,0,0,,,
14.48,452,52.22373857,0,0,,,
14.484,452,94.04163443,0,0,,,
14.488,452,109.342824,0,0,,,
14.492,452,99.18508409,0,0,,,
14.496,453,75.97386663,0,0,,,
14.5,453,59.65465367,0,0,,,
14.504,453,68.16878059,0,0,,,
14.508,453,96.35678094,0,0,,,
14.512,453,120.658594,0,0,,,
14.516,453,124.1730189,0,0,,,
14.52,453,121.8327754,0,0,,,
14.524,453,82.39111273,0,0,,,
14.528,454,33.91162845,0,0,,,
14.532,454,34.91426835,0,0,,,
14.536,454,47.15371611,0,0,,,
14.54,454,47.81286451,0,0,,,
14.544,454,50.1304857,0,0,,,
14.548,454,68.78090067,0,0,,,
14.552,454,102.4468765,0,0,,,
14.556,454,105.891388,0,0,,,
14.56,455,80.55134584,0,0,,,
14.564,455,68.38192013,0,0,,,
14.568,455,59.37345606,0,0,,,
14.572,455,62.11309635,0,0,,,
14.576,455,54.39579976,0,0,,,
14.58,455,26.96204755,0,0,,,
14.584,455,10.51978031,0,0,,,
14.588,455,7.499957813,0,0,,,
14.592,456,17.05471897,0,0,,,
14.596,456,45.5471995,0,0,,,
14.6,456,62.82494437,0,0,,,
14.604,456,57.09412755,0,0,,,
14.608,456,57.50354098,0,0,,,
14.612,456,69.51124844,0,0,,,
14.616,456,50.9439702,0,0,,,
14.62,456,24.88837879,0,0,,,
14.624,457,15.26052112,0,0,,,
14.628,457,12.97980643,0,0,,,
14.632,457,23.90468793,0,0,,,
14.636,457,19.32538271,0,0,,,
14.64,457,3.813862921,0,0,,,
14.644,457,-7.515856007,0,0,,,
14.648,457,-10.52767566,0,0,,,
14.652,457,-11.65806575,0,0,,,
14.656,458,-8.224671447,0,0,,,
14.66,458,-9.705636294,0,0,,,
14.664,458,-21.25097991,0,0,,,
14.668,458,-8.828420304,0,0,,,
14.672,458,18.12930995,0,0,,,
14.676,458,27.71748708,0,0,,,
14.68,458,26.8047022,0,0,,,
14.684,458,24.58524372,0,0,,,
14.688,459,49.35636487,0,0,,,
14.692,459,65.28279202,0,0,,,
14.696,459,64.390845,0,0,,,
14.7,459,75.87287143,0,0,,,
14.704,459,80.11954784,0,0,,,
14.708,459,68.11122945,0,0,,,
14.712,459,61.66697575,0,0,,,
14.716,459,78.79002876,0,0,,,
14.72,460,78.26763621,0,0,,,
14.724,460,46.75121244,0,0,,,
14.728,460,47.14910496,0,0,,,
14.732,460,76.69996595,0,0,,,
14.736,460,82.47213783,0,0,,,
14.74,460,73.06901436,0,0,,,
14.744,460,73.26145899,0,0,,,
14.748,460,104.4010456,0,0,,,
14.752,461,141.2559181,0,0,,,
14.756,461,135.4582229,0,0,,,
14.76,461,112.3036589,0,0,,,
14.764,461,94.48314488,0,0,,,
14.768,461,70.04445457,0,0,,,
14.772,461,80.03799114,0,0,,,
14.776,461,102.710709,0,0,,,
14.78,461,106.6222317,0,0,,,
14.784,462,109.7469368,0,0,,,
14.788,462,119.1784731,0,0,,,
14.792,462,120.6563308,0,0,,,
14.796,462,121.9671829,0,0,,,
14.8,462,122.5026137,0,0,,,
14.804,462,114.5611651,0,0,,,
14.808,462,103.2017134,0,0,,,
14.812,462,92.71024242,0,0,,,
14.816,463,97.87203754,0,0,,,
14.82,463,109.0413146,0,0,,,
14.824,463,129.9582827,0,0,,,
14.828,463,150.8007036,0,0,,,
14.832,463,144.955623,0,0,,,
14.836,463,125.6729006,0,0,,,
14.84,463,118.7426587,0,0,,,
14.844,463,118.1925492,0,0,,,
14.848,464,126.3099262,0,0,,,
14.852,464,131.2058211,0,0,,,
14.856,464,119.6896283,0,0,,,
14.86,464,116.1874038,0,0,,,
14.864,464,145.3343699,0,0,,,
14.868,464,174.4212423,0,0,,,
14.872,464,172.3072168,0,0,,,
14.876,464,151.9846962,0,0,,,
14.88,465,135.0009564,0,0,,,
14.884,465,116.726368,0,0,,,
14.888,465,109.5656773,0,0,,,
14.892,465,118.8258397,0,0,,,
14.896,465,131.8803614,0,0,,,
14.9,465,135.3927533,0,0,,,
14.904,465,119.3908183,0,0,,,
14.908,465,114.7970218,0,0,,,
14.912,466,126.2230792,0,0,,,
14.916,466,99.92309688,0,0,,,
14.92,466,70.37963212,0,0,,,
14.924,466,91.05629829,0,0,,,
14.928,466,112.4466314,0,0,,,
14.932,466,109.308191,0,0,,,
14.936,466,90.10486518,0,0,,,
14.94,466,85.26767849,0,0,,,
14.944,467,86.34334022,0,0,,,
14.948,467,76.72526417,0,0,,,
14.952,467,71.10759434,0,0,,,
14.956,467,67.98613091,0,0,,,
14.96,467,60.99944279,0,0,,,
14.964,467,63.44282291,0,0,,,
14.968,467,73.31321615,0,0,,,
14.972,467,84.49001672,0,0,,,
14.976,468,72.17157795,0,0,,,
14.98,468,47.76935592,0,0,,,
14.984,468,52.46746173,0,0,,,
14.988,468,61.44969882,0,0,,,
14.992,468,42.52178409,0,0,,,
14.996,468,32.7206941,0,0,,,
15,468,40.42833394,0,0,,,
15.004,468,47.47312932,0,0,,,
15.008,469,51.32358486,0,0,,,
15.012,469,52.33748271,0,0,,,
15.016,469,54.89158575,0,0,,,
15.02,469,40.86427943,0,0,,,
15.024,469,27.80558446,0,0,,,
15.028,469,24.27132353,0,0,,,
15.032,469,27.7136375,0,0,,,
15.036,469,29.47987836,0,0,,,
15.04,470,35.57300349,0,0,,,
15.044,470,27.86620582,0,0,,,
15.048,470,11.90079474,0,0,,,
15.052,470,15.03792239,0,0,,,
15.056,470,19.48595751,0,0,,,
15.06,470,16.84363059,0,0,,,
15.064,470,13.31033666,0,0,,,
15.068,470,-0.796371268,0,0,,,
15.072,471,-5.814399239,0,0,,,
15.076,471,1.247785853,0,0,,,
15.08,471,13.04678476,0,0,,,
15.084,471,30.5063689,0,0,,,
15.088,471,30.2302685,0,0,,,
15.092,471,14.83849771,0,0,,,
15.096,471,2.526593182,0,0,,,
15.1,471,-14.37977368,0,0,,,
15.104,472,-31.14858195,0,0,,,
15.108,472,-12.03883719,0,0,,,
15.112,472,8.917772671,0,0,,,
15.116,472,-17.60811181,0,0,,,
15.12,472,-58.61107369,0,0,,,
15.124,472,-59.52509167,0,0,,,
15.128,472,-45.75068644,0,0,,,
15.132,472,-34.91465,0,0,,,
15.136,473,-30.55853918,0,0,,,
15.14,473,-41.5409455,0,0,,,
15.144,473,-46.02762642,0,0,,,
15.148,473,-14.78810931,0,0,,,
15.152,473,6.855894152,0,0,,,
15.156,473,-3.517679138,0,0,,,
15.16,473,-15.50681582,0,0,,,
15.164,473,-27.40931782,0,0,,,
15.168,474,-38.88027923,0,0,,,
15.172,474,-30.2019328,0,0,,,
15.176,474,-9.487828858,0,0,,,
15.18,474,-0.555303793,0,0,,,
15.184,474,5.224497534,0,0,,,
15.188,474,3.894902687,0,0,,,
15.192,474,2.240317305,0,0,,,
15.196,474,13.80256944,0,0,,,
15.2,475,21.14850523,0,0,,,
15.204,475,15.96738364,0,0,,,
15.208,475,16.09648097,0,0,,,
15.212,475,4.609040563,0,0,,,
15.216,475,-7.934200313,0,0,,,
15.22,475,-7.817637313,0,0,,,
15.224,475,-8.15778301,0,0,,,
15.228,475,-27.59314101,0,0,,,
15.232,476,-41.34512115,0,0,,,
15.236,476,-18.13274321,0,0,,,
15.24,476,-4.291296539,0,0,,,
15.244,476,-46.86619909,0,0,,,
15.248,476,-83.80810325,0,0,,,
15.252,476,-82.99786006,0,0,,,
15.256,476,-70.06300721,0,0,,,
15.26,476,-47.72179708,0,0,,,
15.264,477,-47.03847896,0,0,,,
15.268,477,-70.32321532,0,0,,,
15.272,477,-72.70075716,0,0,,,
15.276,477,-58.75551149,0,0,,,
15.28,477,-32.97339701,0,0,,,
15.284,477,-3.870681403,0,0,,,
15.288,477,-1.03164042,0,0,,,
15.292,477,15.61161944,0,0,,,
15.296,478,32.07918618,0,0,,,
15.3,478,29.93712611,0,0,,,
15.304,478,32.34923423,0,0,,,
15.308,478,36.74601038,0,0,,,
15.312,478,44.26244153,0,0,,,
15.316,478,63.95578112,0,0,,,
15.32,478,73.01799712,0,0,,,
15.324,478,69.0830383,0,0,,,
15.328,479,64.34910252,0,0,,,
15.332,479,63.83008315,0,0,,,
15.336,479,55.01182376,0,0,,,
15.34,479,43.6388275,0,0,,,
15.344,479,38.59345128,0,0,,,
15.348,479,38.01463884,0,0,,,
15.352,479,42.34183288,0,0,,,
15.356,479,53.81655914,0,0,,,
15.36,480,56.27661418,0,0,,,
15.364,480,44.70054863,0,0,,,
15.368,480,45.14208871,0,0,,,
15.372,480,58.93115897,0,0,,,
15.376,480,65.81228834,0,0,,,
15.38,480,38.64937657,0,0,,,
15.384,480,14.63401885,0,0,,,
15.388,480,10.78193234,0,0,,,
15.392,481,10.84120091,0,0,,,
15.396,481,-1.09293458,0,0,,,
15.4,481,-19.27328824,0,0,,,
15.404,481,-24.0975427,0,0,,,
15.408,481,-6.448533863,0,0,,,
15.412,481,11.62939938,0,0,,,
15.416,481,12.59769076,0,0,,,
15.42,481,9.551458383,0,0,,,
15.424,482,26.96437265,0,0,,,
15.428,482,40.3706913,0,0,,,
15.432,482,45.33789589,0,0,,,
15.436,482,57.33786871,0,0,,,
15.44,482,58.78253579,0,0,,,
15.444,482,55.33220453,0,0,,,
15.448,482,37.31095521,0,0,,,
15.452,482,14.03379551,0,0,,,
15.456,483,33.30397198,0,0,,,
15.46,483,50.79254997,0,0,,,
15.464,483,26.31068527,0,0,,,
15.468,483,20.7265101,0,0,,,
15.472,483,14.21607458,0,0,,,
15.476,483,-2.675603738,0,0,,,
15.48,483,-0.430682064,0,0,,,
15.484,483,18.43694367,0,0,,,
15.488,484,17.10012387,0,0,,,
15.492,484,5.198735955,0,0,,,
15.496,484,6.509460196,0,0,,,
15.5,484,-5.339569813,0,0,,,
15.504,484,0.256048831,0,0,,,
15.508,484,35.25396912,0,0,,,
15.512,484,23.18802751,0,0,,,
15.516,484,-4.358153296,0,0,,,
15.52,485,0.139003025,0,0,,,
15.524,485,9.475364867,0,0,,,
15.528,485,29.19670873,0,0,,,
15.532,485,51.69474743,0,0,,,
15.536,485,42.88874361,0,0,,,
15.54,485,17.59587298,0,0,,,
15.544,485,7.927984321,0,0,,,
15.548,485,24.47308377,0,0,,,
15.552,486,35.43276365,0,0,,,
15.556,486,16.18260499,0,0,,,
15.56,486,18.24874912,0,0,,,
15.564,486,31.34705128,0,0,,,
15.568,486,28.64621264,0,0,,,
15.572,486,10.94123571,0,0,,,
15.576,486,-7.742869486,0,0,,,
15.58,486,11.08724594,0,0,,,
15.584,487,34.05781857,0,0,,,
15.588,487,13.5989805,0,0,,,
15.592,487,21.85668134,0,0,,,
15.596,487,38.4340123,0,0,,,
15.6,487,14.17275745,0,0,,,
15.604,487,18.1384417,0,0,,,
15.608,487,51.96455067,0,0,,,
15.612,487,42.48955066,0,0,,,
15.616,488,31.8518235,0,0,,,
15.62,488,40.81744437,0,0,,,
15.624,488,37.47956389,0,0,,,
15.628,488,53.40401386,0,0,,,
15.632,488,67.18470992,0,0,,,
15.636,488,51.36463526,0,0,,,
15.64,488,39.05360449,0,0,,,
15.644,488,40.26207507,0,0,,,
15.648,489,37.4172439,0,0,,,
15.652,489,40.03997425,0,0,,,
15.656,489,39.38252299,0,0,,,
15.66,489,48.6340155,0,0,,,
15.664,489,66.28780547,0,0,,,
15.668,489,69.34303828,0,0,,,
15.672,489,41.82028311,0,0,,,
15.676,489,31.31989256,0,0,,,
15.68,490,46.02386287,0,0,,,
15.684,490,38.4219608,0,0,,,
15.688,490,14.28889,0,0,,,
15.692,490,-0.811467949,0,0,,,
15.696,490,14.04779379,0,0,,,
15.7,490,41.53055141,0,0,,,
15.704,490,33.99667705,0,0,,,
15.708,490,17.91418123,0,0,,,
15.712,491,24.30870677,0,0,,,
15.716,491,35.94216206,0,0,,,
15.72,491,43.20049739,0,0,,,
15.724,491,36.19956705,0,0,,,
15.728,491,19.27048911,0,0,,,
15.732,491,15.79173752,0,0,,,
15.736,491,28.57826393,0,0,,,
15.74,491,27.76613507,0,0,,,
15.744,492,35.09143365,0,0,,,
15.748,492,43.95372359,0,0,,,
15.752,492,31.94608966,0,0,,,
15.756,492,27.23879891,0,0,,,
15.76,492,24.31350787,0,0,,,
15.764,492,10.6695293,0,0,,,
15.768,492,0.496185051,0,0,,,
15.772,492,-8.240391516,0,0,,,
15.776,493,7.221824935,0,0,,,
15.78,493,26.61645591,0,0,,,
15.784,493,38.93241938,0,0,,,
15.788,493,33.84740169,0,0,,,
15.792,493,15.96843749,0,0,,,
15.796,493,22.12126927,0,0,,,
15.8,493,33.62362426,0,0,,,
15.804,493,36.25850705,0,0,,,
15.808,494,32.02802203,0,0,,,
15.812,494,19.71773603,0,0,,,
15.816,494,28.89835284,0,0,,,
15.82,494,54.48943547,0,0,,,
15.824,494,44.77598235,0,0,,,
15.828,494,32.44985997,0,0,,,
15.832,494,42.04942515,0,0,,,
15.836,494,47.16663477,0,0,,,
15.84,495,43.7577761,0,0,,,
15.844,495,55.95780357,0,0,,,
15.848,495,72.45073039,0,0,,,
15.852,495,79.85076134,0,0,,,
15.856,495,72.74310139,0,0,,,
15.86,495,62.46465669,0,0,,,
15.864,495,54.811119,0,0,,,
15.868,495,35.62438622,0,0,,,
15.872,496,19.73153572,0,0,,,
15.876,496,29.63520927,0,0,,,
15.88,496,45.3940217,0,0,,,
15.884,496,56.1168704,0,0,,,
15.888,496,67.06749906,0,0,,,
15.892,496,71.20490253,0,0,,,
15.896,496,69.14964946,0,0,,,
15.9,496,62.67224248,0,0,,,
15.904,497,56.16522535,0,0,,,
15.908,497,34.26717358,0,0,,,
15.912,497,20.24352065,0,0,,,
15.916,497,46.25438936,0,0,,,
15.92,497,57.02708929,0,0,,,
15.924,497,50.92059996,0,0,,,
15.928,497,55.19063431,0,0,,,
15.932,497,41.05180257,0,0,,,
15.936,498,25.13414874,0,0,,,
15.94,498,-6.229310756,0,0,,,
15.944,498,-10.69012406,0,0,,,
15.948,498,4.861578807,0,0,,,
15.952,498,-8.471156412,0,0,,,
15.956,498,-4.842143026,0,0,,,
15.96,498,-5.35527628,0,0,,,
15.964,498,-12.87108745,0,0,,,
15.968,499,6.650287177,0,0,,,
15.972,499,14.5988215,0,0,,,
15.976,499,20.67293037,0,0,,,
15.98,499,26.76309171,0,0,,,
15.984,499,10.92288714,0,0,,,
15.988,499,11.1779244,0,0,,,
15.992,499,18.96129271,0,0,,,
15.996,499,7.82484744,0,0,,,
16,500,-0.007280778,0,0,,,
16.004,500,0.279144922,0,0,,,
16.008,500,-5.254163727,0,0,,,
16.012,500,13.71398301,0,0,,,
16.016,500,51.62528911,0,0,,,
16.02,500,42.06694676,0,0,,,
16.024,500,16.40163469,0,0,,,
16.028,500,22.35782736,0,0,,,
16.032,501,24.72830891,0,0,,,
16.036,501,22.47783333,0,0,,,
16.04,501,16.73164941,0,0,,,
16.044,501,12.6666714,0,0,,,
16.048,501,-10.04635361,0,0,,,
16.052,501,-19.06365252,0,0,,,
16.056,501,18.68107655,0,0,,,
16.06,501,38.74459919,0,0,,,
16.064,502,12.04153161,0,0,,,
16.068,502,4.599622448,0,0,,,
16.072,502,27.04212729,0,0,,,
16.076,502,22.51865883,0,0,,,
16.08,502,7.242657586,0,0,,,
16.084,502,24.92327118,0,0,,,
16.088,502,39.50531864,0,0,,,
16.092,502,12.31339078,0,0,,,
16.096,503,15.00175326,0,0,,,
16.1,503,40.56583428,0,0,,,
16.104,503,18.66864089,0,0,,,
16.108,503,-14.73186008,0,0,,,
16.112,503,-4.120497856,0,0,,,
16.116,503,10.68312019,0,0,,,
16.12,503,-2.328126089,0,0,,,
16.124,503,-18.33024276,0,0,,,
16.128,504,-13.78991819,0,0,,,
16.132,504,-24.86473886,0,0,,,
16.136,504,-16.25740052,0,0,,,
16.14,504,30.60216854,0,0,,,
16.144,504,44.54371746,0,0,,,
16.148,504,30.2405461,0,0,,,
16.152,504,34.8673171,0,0,,,
16.156,504,55.96868524,0,0,,,
16.16,505,74.45607832,0,0,,,
16.164,505,83.57626911,0,0,,,
16.168,505,78.42381883,0,0,,,
16.172,505,56.34683186,0,0,,,
16.176,505,44.35786329,0,0,,,
16.18,505,57.14678946,0,0,,,
16.184,505,56.05813776,0,0,,,
16.188,505,58.33740414,0,0,,,
16.192,506,62.59033747,0,0,,,
16.196,506,55.19719082,0,0,,,
16.2,506,69.38237519,0,0,,,
16.204,506,104.7143392,0,0,,,
16.208,506,90.47952552,0,0,,,
16.212,506,61.56800288,0,0,,,
16.216,506,86.93822044,0,0,,,
16.22,506,98.81112594,0,0,,,
16.224,507,60.63425377,0,0,,,
16.228,507,49.0753566,0,0,,,
16.232,507,45.32497614,0,0,,,
16.236,507,24.58685384,0,0,,,
16.24,507,43.19844258,0,0,,,
16.244,507,74.11946273,0,0,,,
16.248,507,73.45460395,0,0,,,
16.252,507,78.30450102,0,0,,,
16.256,508,91.49737266,0,0,,,
16.26,508,79.85933837,0,0,,,
16.264,508,80.65425069,0,0,,,
16.268,508,87.28127058,0,0,,,
16.272,508,67.44672153,0,0,,,
16.276,508,59.90624241,0,0,,,
16.28,508,72.52385916,0,0,,,
16.284,508,69.58037102,0,0,,,
16.288,509,66.52494482,0,0,,,
16.292,509,49.70563322,0,0,,,
16.296,509,33.44374688,0,0,,,
16.3,509,32.00158679,0,0,,,
16.304,509,25.64192542,0,0,,,
16.308,509,20.92008576,0,0,,,
16.312,509,25.33568168,0,0,,,
16.316,509,53.98665258,0,0,,,
16.32,510,83.96812851,0,0,,,
16.324,510,92.85657506,0,0,,,
16.328,510,103.5824156,0,0,,,
16.332,510,90.28987126,0,0,,,
16.336,510,74.11445477,0,0,,,
16.34,510,76.61779481,0,0,,,
16.344,510,86.35064617,0,0,,,
16.348,510,107.8205373,0,0,,,
16.352,511,131.4562161,0,0,,,
16.356,511,140.4329617,0,0,,,
16.36,511,129.4629305,0,0,,,
16.364,511,125.7970983,0,0,,,
16.368,511,131.7131624,0,0,,,
16.372,511,145.2343083,0,0,,,
16.376,511,157.3313594,0,0,,,
16.38,511,191.5716212,0,0,,,
16.384,512,234.0068715,0,0,,,
16.388,512,264.9553915,0,0,,,
16.392,512,288.6716049,0,0,,,
16.396,512,307.2225095,0,0,,,
16.4,512,326.0080051,0,0,,,
16.404,512,337.0641397,0,0,,,
16.408,512,341.4390037,0,0,,,
16.412,512,353.0875827,0,0,,,
16.416,513,342.4492725,0,0,,,
16.42,513,307.0557481,0,0,,,
16.424,513,263.9549195,0,0,,,
16.428,513,217.2260225,0,0,,,
16.432,513,181.9131944,0,0,,,
16.436,513,167.4817461,0,0,,,
16.44,513,146.8799418,0,0,,,
16.444,513,81.27707171,0,0,,,
16.448,514,49.01875915,0,0,,,
16.452,514,61.30999122,0,0,,,
16.456,514,26.93613682,0,0,,,
16.46,514,-48.97021781,0,0,,,
16.464,514,-101.5436434,0,0,,,
16.468,514,-125.5366207,0,0,,,
16.472,514,-138.1780889,0,0,,,
16.476,514,-154.6061648,0,0,,,
16.48,515,-178.2411538,0,0,,,
16.484,515,-197.5971577,0,0,,,
16.488,515,-213.4080953,0,0,,,
16.492,515,-233.1929118,0,0,,,
16.496,515,-233.0639021,0,0,,,
16.5,515,-231.3795962,0,0,,,
16.504,515,-242.9353695,0,0,,,
16.508,515,-249.1304056,0,0,,,
16.512,516,-254.9037023,0,0,,,
16.516,516,-260.646184,0,0,,,
16.52,516,-261.2695414,0,0,,,
16.524,516,-249.4484096,0,0,,,
16.528,516,-231.011031,0,0,,,
16.532,516,-215.7337167,0,0,,,
16.536,516,-207.2614985,0,0,,,
