Time:128Hz,Epoch,Electrode,Attention,Meditation,Event Id,Event Date,Event Duration
0.0000000000,0,-60.0000000000,21.0000000000,35.0000000000,,,
0.0078125000,0,-52.7879073512,21.0000000000,35.0000000000,,,
0.0156250000,0,-8.8739447587,21.0000000000,35.0000000000,,,
0.0234375000,0,25.2895486395,21.0000000000,35.0000000000,,,
0.0312500000,0,27.1297566646,21.0000000000,35.0000000000,,,
0.0390625000,0,47.8027675684,21.0000000000,35.0000000000,,,
0.0468750000,0,65.2426781770,21.0000000000,35.0000000000,,,
0.0546875000,0,63.5800048507,21.0000000000,35.0000000000,,,
0.0625000000,1,61.1283348275,21.0000000000,35.0000000000,,,
0.0703125000,1,53.0769254660,21.0000000000,35.0000000000,,,
0.0781250000,1,60.1052997589,21.0000000000,35.0000000000,,,
0.0859375000,1,74.1021082214,21.0000000000,35.0000000000,,,
0.0937500000,1,67.7248495957,21.0000000000,35.0000000000,,,
0.1015625000,1,75.5948583919,21.0000000000,35.0000000000,,,
0.1093750000,1,60.4632268218,21.0000000000,35.0000000000,,,
0.1171875000,1,41.0250119580,21.0000000000,35.0000000000,,,
0.1250000000,2,45.2358637510,21.0000000000,35.0000000000,,,
0.1328125000,2,50.5008657043,21.0000000000,35.0000000000,,,
0.1406250000,2,64.2410768647,21.0000000000,35.0000000000,,,
0.1484375000,2,73.6725868355,21.0000000000,35.0000000000,,,
0.1562500000,2,67.0121074813,21.0000000000,35.0000000000,,,
0.1640625000,2,46.6168448983,21.0000000000,35.0000000000,,,
0.1718750000,2,53.2574537207,21.0000000000,35.0000000000,,,
0.1796875000,2,81.1389777727,21.0000000000,35.0000000000,,,
0.1875000000,3,80.2950581089,21.0000000000,35.0000000000,,,
0.1953125000,3,49.5194160360,21.0000000000,35.0000000000,,,
0.2031250000,3,30.8828821356,21.0000000000,35.0000000000,,,
0.2109375000,3,52.7375770036,21.0148927462,35.0223391194,,,
0.2187500000,3,107.9114350239,21.5395331193,35.8092996789,,,
0.2265625000,3,136.1524009515,22.6681733057,37.5022599585,,,
0.2343750000,3,109.4390414898,23.2173984790,38.3260977185,,,
0.2421875000,3,87.2582218996,23.0973759623,38.1460639434,,,
0.2500000000,4,90.8420322617,22.9435367618,37.9153051427,,,
0.2578125000,4,75.6878097403,22.9643678800,37.9465518200,,,
0.2656250000,4,44.0146069963,23.0135315297,38.0202972945,,,
0.2734375000,4,81.1035701009,23.0126959579,38.0190439368,,,
0.2812500000,4,122.4027319564,22.9973900966,37.9960851450,,,
0.2890625000,4,100.9242602408,22.9957855826,37.9936783740,,,
0.2968750000,4,72.5701023663,23.0002937411,38.0004406116,,,
0.3046875000,4,78.9304498703,23.0013300061,38.0019950092,,,
0.3125000000,5,55.4111281361,23.0000698332,38.0001047497,,,
0.3203125000,5,31.5902756940,22.9995997387,37.9993996081,,,
0.3281250000,5,93.8011423208,22.9999303425,37.9998955137,,,
0.3359375000,5,189.2395757849,23.0001145968,38.0001718952,,,
0.3437500000,5,269.4726159551,23.0000352031,38.0000528047,,,
0.3515625000,5,339.2333993147,22.9999690281,37.9999535422,,,
0.3593750000,5,366.2687207729,22.9999854538,37.9999781807,,,
0.3671875000,5,405.6381317144,23.0000077648,38.0000116472,,,
0.3750000000,6,445.2772779097,23.0000054045,38.0000081068,,,
0.3828125000,6,410.2548869878,22.9999982650,37.9999973975,,,
0.3906250000,6,329.8483511005,22.9999981305,37.9999971957,,,
0.3984375000,6,252.7603484449,23.0000003080,38.0000004619,,,
0.4062500000,6,174.9174741335,23.0000006115,38.0000009173,,,
0.4140625000,6,67.0138977956,22.9999999790,37.9999999685,,,
0.4218750000,6,-28.3600620491,22.9999998096,37.9999997144,,,
0.4296875000,6,-103.1947517387,22.9999999835,37.9999999753,,,
0.4375000000,7,-171.6179391706,23.0000000565,38.0000000848,,,
0.4453125000,7,-234.2040099186,23.0000000119,38.0000000178,,,
0.4531250000,7,-268.1412815910,22.9999999841,37.9999999761,,,
0.4609375000,7,-261.1647709906,22.9999999944,37.9999999916,,,
0.4687500000,7,-250.4974769753,23.0000000042,38.0000000063,,,
0.4765625000,7,-254.6765441438,23.0000000022,38.0000000033,,,
0.4843750000,7,-271.6572086884,22.9999999990,37.9999999985,,,
0.4921875000,7,-257.6021498737,22.9999999992,37.9999999988,,,
0.5000000000,8,-219.8773252745,23.0000000002,38.0000000003,,,
0.5078125000,8,-176.3451219155,23.0000000003,38.0000000004,,,
0.5156250000,8,-123.9149979862,23.0000000000,37.9999999999,,,
0.5234375000,8,-108.3154052538,22.9999999999,37.9999999999,,,
0.5312500000,8,-90.2445344490,23.0000000000,38.0000000000,,,
0.5390625000,8,-51.4975252072,23.0000000000,38.0000000000,,,
0.5468750000,8,-67.3096991284,23.0000000000,38.0000000000,,,
0.5546875000,8,-75.7936428760,23.0000000000,38.0000000000,,,
0.5625000000,9,-61.4522303966,23.0000000000,38.0000000000,,,
0.5703125000,9,-54.5149212854,23.0000000000,38.0000000000,,,
0.5781250000,9,-31.2671901606,23.0000000000,38.0000000000,,,
0.5859375000,9,8.9329925660,23.0000000000,38.0000000000,,,
0.5937500000,9,31.0223185805,23.0000000000,38.0000000000,,,
0.6015625000,9,32.5065139445,23.0000000000,38.0000000000,,,
0.6093750000,9,57.1714966620,23.0000000000,38.0000000000,,,
0.6171875000,9,70.4217580756,23.0000000000,38.0000000000,,,
0.6250000000,10,89.3090487698,23.0000000000,38.0000000000,,,
0.6328125000,10,102.8000523828,23.0000000000,38.0000000000,,,
0.6406250000,10,101.4627629572,23.0000000000,38.0000000000,,,
0.6484375000,10,79.6103824682,23.0000000000,38.0000000000,,,
0.6562500000,10,57.2606093726,23.0000000000,38.0000000000,,,
0.6640625000,10,63.2583167393,23.0000000000,38.0000000000,,,
0.6718750000,10,76.0620288803,23.0000000000,38.0000000000,,,
0.6796875000,10,53.1483337859,23.0000000000,38.0000000000,,,
0.6875000000,11,42.3627182661,23.0000000000,38.0000000000,,,
0.6953125000,11,42.8052787374,23.0000000000,38.0000000000,,,
0.7031250000,11,39.3610751803,23.0000000000,38.0000000000,,,
0.7109375000,11,51.1195484714,23.0000000000,38.0000000000,,,
0.7187500000,11,47.9824820498,23.0000000000,38.0000000000,,,
0.7265625000,11,31.9510118920,23.0000000000,38.0000000000,,,
0.7343750000,11,33.0928703005,23.0000000000,38.0000000000,,,
0.7421875000,11,31.2264513912,23.0000000000,38.0000000000,,,
0.7500000000,12,7.9444619021,23.0000000000,38.0000000000,,,
0.7578125000,12,39.1638827733,23.0000000000,38.0000000000,,,
0.7656250000,12,103.8956008592,23.0000000000,38.0000000000,,,
0.7734375000,12,86.0056514230,23.0000000000,38.0000000000,,,
0.7812500000,12,37.3870330023,23.0000000000,38.0000000000,,,
0.7890625000,12,48.7483526729,23.0000000000,38.0000000000,,,
0.7968750000,12,61.2847846201,23.0000000000,38.0000000000,,,
0.8046875000,12,49.9781405346,23.0000000000,38.0000000000,,,
0.8125000000,13,41.4636859538,23.0000000000,38.0000000000,,,
0.8203125000,13,53.5944494651,23.0000000000,38.0000000000,,,
0.8281250000,13,57.5883458022,23.0000000000,38.0000000000,,,
0.8359375000,13,31.5203458426,23.0000000000,38.0000000000,,,
0.8437500000,13,23.4061889407,23.0000000000,38.0000000000,,,
0.8515625000,13,69.8098196931,23.0000000000,38.0000000000,,,
0.8593750000,13,97.7526887985,23.0000000000,38.0000000000,,,
0.8671875000,13,73.6047466047,23.0000000000,38.0000000000,,,
0.8750000000,14,61.3876185928,23.0000000000,38.0000000000,,,
0.8828125000,14,45.4727879849,23.0000000000,38.0000000000,,,
0.8906250000,14,26.1874155466,23.0000000000,38.0000000000,,,
0.8984375000,14,0.6941300833,23.0000000000,38.0000000000,,,
0.9062500000,14,19.0691744193,23.0000000000,38.0000000000,,,
0.9140625000,14,82.3791414773,23.0000000000,38.0000000000,,,
0.9218750000,14,121.7131124806,23.0000000000,38.0000000000,,,
0.9296875000,14,132.9399350902,23.0000000000,38.0000000000,,,
0.9375000000,15,153.6390448614,23.0000000000,38.0000000000,,,
0.9453125000,15,140.3570874585,23.0000000000,38.0000000000,,,
0.9531250000,15,81.6218656866,23.0000000000,38.0000000000,,,
0.9609375000,15,33.9829074866,23.0000000000,38.0000000000,,,
0.9687500000,15,20.8917024009,23.0000000000,38.0000000000,,,
0.9765625000,15,26.5275788461,23.0000000000,38.0000000000,,,
0.9843750000,15,21.3211565807,23.0000000000,38.0000000000,,,
0.9921875000,15,6.2103603579,23.0000000000,38.0000000000,,,
1.0000000000,16,-19.8314147556,23.0000000000,38.0000000000,,,
1.0078125000,16,-2.4568267564,23.0000000000,38.0000000000,,,
1.0156250000,16,14.4912731397,23.0000000000,38.0000000000,,,
1.0234375000,16,-9.1864135933,23.0000000000,38.0000000000,,,
1.0312500000,16,-12.1291226222,23.0000000000,38.0000000000,,,
1.0390625000,16,5.9066180680,23.0000000000,38.0000000000,,,
1.0468750000,16,6.9581482338,23.0000000000,38.0000000000,,,
1.0546875000,16,-7.2167099683,23.0000000000,38.0000000000,,,
1.0625000000,17,8.2597980952,23.0000000000,38.0000000000,,,
1.0703125000,17,27.5328400012,23.0000000000,38.0000000000,,,
1.0781250000,17,44.4752529206,23.0000000000,38.0000000000,,,
1.0859375000,17,57.2331217665,23.0000000000,38.0000000000,,,
1.0937500000,17,49.4343004567,23.0000000000,38.0000000000,,,
1.1015625000,17,39.1865922157,23.0000000000,38.0000000000,,,
1.1093750000,17,53.4189631794,23.0000000000,38.0000000000,,,
1.1171875000,17,65.0260451092,23.0000000000,38.0000000000,,,
1.1250000000,18,74.3706506422,23.0000000000,38.0000000000,,,
1.1328125000,18,78.8454240893,23.0000000000,38.0000000000,,,
1.1406250000,18,94.0036364610,23.0000000000,38.0000000000,,,
1.1484375000,18,96.0209004185,23.0000000000,38.0000000000,,,
1.1562500000,18,80.5560779407,23.0000000000,38.0000000000,,,
1.1640625000,18,74.3497354494,23.0000000000,38.0000000000,,,
1.1718750000,18,66.4920531157,23.0000000000,38.0000000000,,,
1.1796875000,18,47.4608945503,23.0000000000,38.0000000000,,,
1.1875000000,19,42.8554678598,23.0000000000,38.0000000000,,,
1.1953125000,19,71.7777331459,23.0000000000,38.0000000000,,,
1.2031250000,19,69.0293332828,23.0000000000,38.0000000000,,,
1.2109375000,19,50.1474742011,23.0000000000,38.0446782387,,,
1.2187500000,19,53.6153786242,23.0000000000,39.6185993579,,,
1.2265625000,19,63.8360877137,23.0000000000,43.0045199170,,,
1.2343750000,19,44.4306043658,23.0000000000,44.6521954369,,,
1.2421875000,19,19.5177582578,23.0000000000,44.2921278869,,,
1.2500000000,20,44.2108991487,23.0000000000,43.8306102854,,,
1.2578125000,20,100.0257737115,23.0000000000,43.8931036400,,,
1.2656250000,20,99.1272840845,23.0000000000,44.0405945891,,,
1.2734375000,20,64.8319649658,23.0000000000,44.0380878736,,,
1.2812500000,20,37.5619641825,23.0000000000,43.9921702899,,,
1.2890625000,20,32.2667399373,23.0000000000,43.9873567479,,,
1.2968750000,20,49.2802451482,23.0000000000,44.0008812232,,,
1.3046875000,20,53.1656401756,23.0000000000,44.0039900183,,,
1.3125000000,21,66.0679724033,23.0000000000,44.0002094995,,,
1.3203125000,21,61.9495153190,23.0000000000,43.9987992162,,,
1.3281250000,21,23.4946592249,23.0000000000,43.9997910274,,,
1.3359375000,21,-29.4718133503,23.0000000000,44.0003437905,,,
1.3437500000,21,-5.4403761108,23.0000000000,44.0001056094,,,
1.3515625000,21,58.9935035385,23.0000000000,43.9999070844,,,
1.3593750000,21,64.2203384632,23.0000000000,43.9999563613,,,
1.3671875000,21,11.3915884567,23.0000000000,44.0000232943,,,
1.3750000000,22,-20.8437879358,23.0000000000,44.0000162136,,,
1.3828125000,22,-5.8978839980,23.0000000000,43.9999947950,,,
1.3906250000,22,-2.8480379236,23.0000000000,43.9999943914,,,
1.3984375000,22,-8.0116380769,23.0000000000,44.0000009239,,,
1.4062500000,22,8.8139654524,23.0000000000,44.0000018346,,,
1.4140625000,22,31.5703481078,23.0000000000,43.9999999370,,,
1.4218750000,22,19.3469078147,23.0000000000,43.9999994287,,,
1.4296875000,22,-6.3197116595,23.0000000000,43.9999999506,,,
1.4375000000,23,2.7808857431,23.0000000000,44.0000001696,,,
1.4453125000,23,36.9513354564,23.0000000000,44.0000000356,,,
1.4531250000,23,35.0580357490,23.0000000000,43.9999999522,,,
1.4609375000,23,24.6590121508,23.0000000000,43.9999999833,,,
1.4687500000,23,28.2274300448,23.0000000000,44.0000000127,,,
1.4765625000,23,34.1539122239,23.0000000000,44.0000000067,,,
1.4843750000,23,46.6515802023,23.0000000000,43.9999999969,,,
1.4921875000,23,74.2010990086,23.0000000000,43.9999999976,,,
1.5000000000,24,55.4535492884,23.0000000000,44.0000000007,,,
1.5078125000,24,18.9895025796,23.0000000000,44.0000000008,,,
1.5156250000,24,37.9351425210,23.0000000000,43.9999999999,,,
1.5234375000,24,68.2220646370,23.0000000000,43.9999999997,,,
1.5312500000,24,58.4145570850,23.0000000000,44.0000000000,,,
1.5390625000,24,28.0326387670,23.0000000000,44.0000000001,,,
1.5468750000,24,14.1562481359,23.0000000000,44.0000000000,,,
1.5546875000,24,3.0441216345,23.0000000000,44.0000000000,,,
1.5625000000,25,-1.3765765195,23.0000000000,44.0000000000,,,
1.5703125000,25,1.1852421380,23.0000000000,44.0000000000,,,
1.5781250000,25,12.5149040878,23.0000000000,44.0000000000,,,
1.5859375000,25,18.6486377770,23.0000000000,44.0000000000,,,
1.5937500000,25,21.8698613938,23.0000000000,44.0000000000,,,
1.6015625000,25,46.2985286476,23.0000000000,44.0000000000,,,
1.6093750000,25,73.9399248494,23.0000000000,44.0000000000,,,
1.6171875000,25,81.3397646185,23.0000000000,44.0000000000,,,
1.6250000000,26,93.7696490323,23.0000000000,44.0000000000,,,
1.6328125000,26,87.0721561972,23.0000000000,44.0000000000,,,
1.6406250000,26,72.7434476608,23.0000000000,44.0000000000,,,
1.6484375000,26,60.7523204793,23.0000000000,44.0000000000,,,
1.6562500000,26,26.8006354982,23.0000000000,44.0000000000,,,
1.6640625000,26,10.8790417541,23.0000000000,44.0000000000,,,
1.6718750000,26,41.1707583228,23.0000000000,44.0000000000,,,
1.6796875000,26,65.2820245583,23.0000000000,44.0000000000,,,
1.6875000000,27,48.7490763189,23.0000000000,44.0000000000,,,
1.6953125000,27,33.0671160405,23.0000000000,44.0000000000,,,
1.7031250000,27,23.2932564703,23.0000000000,44.0000000000,,,
1.7109375000,27,12.9898741245,23.0000000000,44.0000000000,,,
1.7187500000,27,-22.0304226584,23.0000000000,44.0000000000,,,
1.7265625000,27,-52.9836773214,23.0000000000,44.0000000000,,,
1.7343750000,27,-1.3539490285,23.0000000000,44.0000000000,,,
1.7421875000,27,85.6634173341,23.0000000000,44.0000000000,,,
1.7500000000,28,80.9231032036,23.0000000000,44.0000000000,,,
1.7578125000,28,41.6647216093,23.0000000000,44.0000000000,,,
1.7656250000,28,69.2348483925,23.0000000000,44.0000000000,,,
1.7734375000,28,88.6491090095,23.0000000000,44.0000000000,,,
1.7812500000,28,70.4101966652,23.0000000000,44.0000000000,,,
1.7890625000,28,46.1658875436,23.0000000000,44.0000000000,,,
1.7968750000,28,14.8639578648,23.0000000000,44.0000000000,,,
1.8046875000,28,-10.3691076556,23.0000000000,44.0000000000,,,
1.8125000000,29,15.1610257813,23.0000000000,44.0000000000,,,
1.8203125000,29,61.3141895252,23.0000000000,44.0000000000,,,
1.8281250000,29,53.7911379467,23.0000000000,44.0000000000,,,
1.8359375000,29,25.2081059990,23.0000000000,44.0000000000,,,
1.8437500000,29,34.1137036372,23.0000000000,44.0000000000,,,
1.8515625000,29,48.2837902055,23.0000000000,44.0000000000,,,
1.8593750000,29,49.9628719386,23.0000000000,44.0000000000,,,
1.8671875000,29,64.0067104332,23.0000000000,44.0000000000,,,
1.8750000000,30,54.0607865493,23.0000000000,44.0000000000,,,
1.8828125000,30,20.8317421169,23.0000000000,44.0000000000,,,
1.8906250000,30,24.5366816108,23.0000000000,44.0000000000,,,
1.8984375000,30,65.9992682679,23.0000000000,44.0000000000,,,
1.9062500000,30,80.0250178688,23.0000000000,44.0000000000,,,
1.9140625000,30,64.1690949283,23.0000000000,44.0000000000,,,
1.9218750000,30,57.0453091204,23.0000000000,44.0000000000,,,
1.9296875000,30,51.5641543700,23.0000000000,44.0000000000,,,
1.9375000000,31,41.9088428920,23.0000000000,44.0000000000,,,
1.9453125000,31,49.1718488522,23.0000000000,44.0000000000,,,
1.9531250000,31,80.3432264735,23.0000000000,44.0000000000,,,
1.9609375000,31,102.8360116893,23.0000000000,44.0000000000,,,
1.9687500000,31,75.5938957493,23.0000000000,44.0000000000,,,
1.9765625000,31,25.4780549321,23.0000000000,44.0000000000,,,
1.9843750000,31,0.7477766398,23.0000000000,44.0000000000,,,
1.9921875000,31,9.1975775014,23.0000000000,44.0000000000,,,
2.0000000000,32,28.6027369713,23.0000000000,44.0000000000,,,
2.0078125000,32,54.9230372042,23.0000000000,44.0000000000,,,
2.0156250000,32,73.3579158817,23.0000000000,44.0000000000,,,
2.0234375000,32,58.0283322866,23.0000000000,44.0000000000,,,
2.0312500000,32,32.1483039119,23.0000000000,44.0000000000,,,
2.0390625000,32,13.4949258624,23.0000000000,44.0000000000,,,
2.0468750000,32,15.2444663684,23.0000000000,44.0000000000,,,
2.0546875000,32,48.6055315917,23.0000000000,44.0000000000,,,
2.0625000000,33,69.0957354546,23.0000000000,44.0000000000,,,
2.0703125000,33,38.3867450442,23.0000000000,44.0000000000,,,
2.0781250000,33,38.4531181292,23.0000000000,44.0000000000,,,
2.0859375000,33,54.1894753583,23.0000000000,44.0000000000,,,
2.0937500000,33,23.7754492960,23.0000000000,44.0000000000,,,
2.1015625000,33,5.5727511941,23.0000000000,44.0000000000,,,
2.1093750000,33,33.3969557293,23.0000000000,44.0000000000,,,
2.1171875000,33,62.2929185796,23.0000000000,44.0000000000,,,
2.1250000000,34,62.0922863406,23.0000000000,44.0000000000,,,
2.1328125000,34,51.7814476148,23.0000000000,44.0000000000,,,
2.1406250000,34,32.9818928381,23.0000000000,44.0000000000,,,
2.1484375000,34,20.7120137167,23.0000000000,44.0000000000,,,
2.1562500000,34,15.3702361623,23.0000000000,44.0000000000,,,
2.1640625000,34,44.3437996663,23.0000000000,44.0000000000,,,
2.1718750000,34,70.2443482160,23.0000000000,44.0000000000,,,
2.1796875000,34,67.6338250571,23.0000000000,44.0000000000,,,
2.1875000000,35,67.1792813024,23.0000000000,44.0000000000,,,
2.1953125000,35,59.6334815889,23.0000000000,44.0000000000,,,
2.2031250000,35,21.1374221494,23.0000000000,44.0000000000,,,
2.2109375000,35,-6.5971298684,22.9031971494,43.9776608806,,,
2.2187500000,35,21.3225459591,19.4930347246,43.1907003211,,,
2.2265625000,35,76.8053708500,12.1568735133,41.4977400415,,,
2.2343750000,35,70.0397267314,8.5869098867,40.6739022815,,,
2.2421875000,35,21.1005846399,9.3670562451,40.8539360566,,,
2.2500000000,36,2.5915963887,10.3670110483,41.0846948573,,,
2.2578125000,36,-8.6453163308,10.2316087800,41.0534481800,,,
2.2656250000,36,1.7078414965,9.9120450570,40.9797027055,,,
2.2734375000,36,21.2571466108,9.9174762738,40.9809560632,,,
2.2812500000,36,29.3008300527,10.0169643719,41.0039148550,,,
2.2890625000,36,17.5708520342,10.0273937128,41.0063216260,,,
2.2968750000,36,20.9809623305,9.9980906831,40.9995593884,,,
2.3046875000,36,18.5979198662,9.9913549603,40.9980049908,,,
2.3125000000,37,13.8643554773,9.9995460845,40.9998952503,,,
2.3203125000,37,35.0358855852,10.0026016982,41.0006003919,,,
2.3281250000,37,59.3155071533,10.0004527740,41.0001044863,,,
2.3359375000,37,51.4973398217,9.9992551206,40.9998281048,,,
2.3437500000,37,38.1130555109,9.9997711796,40.9999471953,,,
2.3515625000,37,37.1995253629,10.0002013172,41.0000464578,,,
2.3593750000,37,50.9894555047,10.0000945504,41.0000218193,,,
2.3671875000,37,72.5654539986,9.9999495290,40.9999883528,,,
2.3750000000,38,62.7792506909,9.9999648705,40.9999918932,,,
2.3828125000,38,44.1138598110,10.0000112774,41.0000026025,,,
2.3906250000,38,37.0289685328,10.0000121520,41.0000028043,,,
2.3984375000,38,47.7481602843,9.9999979982,40.9999995381,,,
2.4062500000,38,70.3113370627,9.9999960251,40.9999990827,,,
2.4140625000,38,89.6029578285,10.0000001364,41.0000000315,,,
2.4218750000,38,67.1373802584,10.0000012378,41.0000002856,,,
2.4296875000,38,20.8164099353,10.0000001071,41.0000000247,,,
2.4375000000,39,22.0111230715,9.9999996326,40.9999999152,,,
2.4453125000,39,25.0797558473,9.9999999228,40.9999999822,,,
2.4531250000,39,7.3979503869,10.0000001036,41.0000000239,,,
2.4609375000,39,26.9397707600,10.0000000362,41.0000000083,,,
2.4687500000,39,59.5485818508,9.9999999725,40.9999999937,,,
2.4765625000,39,59.6630026131,9.9999999856,40.9999999967,,,
2.4843750000,39,17.9517371786,10.0000000067,41.0000000015,,,
2.4921875000,39,-7.8007171522,10.0000000052,41.0000000012,,,
2.5000000000,40,30.4600380462,9.9999999986,40.9999999997,,,
2.5078125000,40,41.2516830932,9.9999999982,40.9999999996,,,
2.5156250000,40,30.5477279617,10.0000000002,41.0000000001,,,
2.5234375000,40,47.0465749671,10.0000000006,41.0000000001,,,
2.5312500000,40,61.1181312160,10.0000000000,41.0000000000,,,
2.5390625000,40,15.3067691249,9.9999999998,41.0000000000,,,
2.5468750000,40,-8.0077048916,10.0000000000,41.0000000000,,,
2.5546875000,40,31.7470460274,10.0000000001,41.0000000000,,,
2.5625000000,41,41.6677545815,10.0000000000,41.0000000000,,,
2.5703125000,41,23.5558667323,10.0000000000,41.0000000000,,,
2.5781250000,41,29.6951999914,10.0000000000,41.0000000000,,,
2.5859375000,41,47.1793836630,10.0000000000,41.0000000000,,,
2.5937500000,41,61.2730069571,10.0000000000,41.0000000000,,,
2.6015625000,41,54.0490896640,10.0000000000,41.0000000000,,,
2.6093750000,41,52.2151718324,10.0000000000,41.0000000000,,,
2.6171875000,41,109.2263859405,10.0000000000,41.0000000000,,,
2.6250000000,42,185.2629527323,10.0000000000,41.0000000000,,,
2.6328125000,42,262.4870090922,10.0000000000,41.0000000000,,,
2.6406250000,42,351.9814671757,10.0000000000,41.0000000000,,,
2.6484375000,42,437.3319414581,10.0000000000,41.0000000000,,,
2.6562500000,42,473.2739914183,10.0000000000,41.0000000000,,,
2.6640625000,42,472.6698151444,10.0000000000,41.0000000000,,,
2.6718750000,42,437.3478877545,10.0000000000,41.0000000000,,,
2.6796875000,42,312.9642971397,10.0000000000,41.0000000000,,,
2.6875000000,43,132.1430172416,10.0000000000,41.0000000000,,,
2.6953125000,43,-27.2537581956,10.0000000000,41.0000000000,,,
2.7031250000,43,-125.6325034790,10.0000000000,41.0000000000,,,
2.7109375000,43,-192.4543263199,10.0000000000,41.0000000000,,,
2.7187500000,43,-238.0611755154,10.0000000000,41.0000000000,,,
2.7265625000,43,-273.2582126656,10.0000000000,41.0000000000,,,
2.7343750000,43,-289.7382827293,10.0000000000,41.0000000000,,,
2.7421875000,43,-286.7746871355,10.0000000000,41.0000000000,,,
2.7500000000,44,-251.1904925002,10.0000000000,41.0000000000,,,
2.7578125000,44,-209.3032053509,10.0000000000,41.0000000000,,,
2.7656250000,44,-182.9290737578,10.0000000000,41.0000000000,,,
2.7734375000,44,-178.2463927846,10.0000000000,41.0000000000,,,
2.7812500000,44,-165.3570283593,10.0000000000,41.0000000000,,,
2.7890625000,44,-136.0732449366,10.0000000000,41.0000000000,,,
2.7968750000,44,-124.2288632018,10.0000000000,41.0000000000,,,
2.8046875000,44,-104.8737247182,10.0000000000,41.0000000000,,,
2.8125000000,45,-70.6145777858,10.0000000000,41.0000000000,,,
2.8203125000,45,-40.3552280679,10.0000000000,41.0000000000,,,
2.8281250000,45,-36.3115609487,10.0000000000,41.0000000000,,,
2.8359375000,45,-28.5078952560,10.0000000000,41.0000000000,,,
2.8437500000,45,-5.4003489409,10.0000000000,41.0000000000,,,
2.8515625000,45,1.9635827509,10.0000000000,41.0000000000,,,
2.8593750000,45,0.0826943470,10.0000000000,41.0000000000,,,
2.8671875000,45,16.6734754163,10.0000000000,41.0000000000,,,
2.8750000000,46,40.5909533631,10.0000000000,41.0000000000,,,
2.8828125000,46,56.8930070108,10.0000000000,41.0000000000,,,
2.8906250000,46,41.3588654742,10.0000000000,41.0000000000,,,
2.8984375000,46,38.6412630556,10.0000000000,41.0000000000,,,
2.9062500000,46,71.5235093083,10.0000000000,41.0000000000,,,
2.9140625000,46,96.0568370215,10.0000000000,41.0000000000,,,
2.9218750000,46,98.3136137259,10.0000000000,41.0000000000,,,
2.9296875000,46,99.2114443978,10.0000000000,41.0000000000,,,
2.9375000000,47,108.1896309823,10.0000000000,41.0000000000,,,
2.9453125000,47,116.0902347497,10.0000000000,41.0000000000,,,
2.9531250000,47,127.8056938075,10.0000000000,41.0000000000,,,
2.9609375000,47,110.9406529875,10.0000000000,41.0000000000,,,
2.9687500000,47,120.8313991322,10.0000000000,41.0000000000,,,
2.9765625000,47,162.5973583546,10.0000000000,41.0000000000,,,
2.9843750000,47,190.8393875259,10.0000000000,41.0000000000,,,
2.9921875000,47,214.7239187454,10.0000000000,41.0000000000,,,
3.0000000000,48,253.6605091259,10.0000000000,41.0000000000,,,
3.0078125000,48,319.0658449769,10.0000000000,41.0000000000,,,
3.0156250000,48,415.7078359780,10.0000000000,41.0000000000,,,
3.0234375000,48,479.2038758118,10.0000000000,41.0000000000,,,
3.0312500000,48,480.1113304670,10.0000000000,41.0000000000,,,
3.0390625000,48,429.0972594837,10.0000000000,41.0000000000,,,
3.0468750000,48,316.6612840965,10.0000000000,41.0000000000,,,
3.0546875000,48,157.4559428013,10.0000000000,41.0000000000,,,
3.0625000000,49,18.0615671717,10.0000000000,41.0000000000,,,
3.0703125000,49,-56.4777193707,10.0000000000,41.0000000000,,,
3.0781250000,49,-113.6287053507,10.0000000000,41.0000000000,,,
3.0859375000,49,-178.6040974710,10.0000000000,41.0000000000,,,
3.0937500000,49,-251.4679371616,10.0000000000,41.0000000000,,,
3.1015625000,49,-283.5946090043,10.0000000000,41.0000000000,,,
3.1093750000,49,-289.2084106745,10.0000000000,41.0000000000,,,
3.1171875000,49,-299.4713283089,10.0000000000,41.0000000000,,,
3.1250000000,50,-285.2715013550,10.0000000000,41.0000000000,,,
3.1328125000,50,-263.6696737968,10.0000000000,41.0000000000,,,
3.1406250000,50,-250.6170176701,10.0000000000,41.0000000000,,,
3.1484375000,50,-201.7215955251,10.0000000000,41.0000000000,,,
3.1562500000,50,-157.7777999941,10.0000000000,41.0000000000,,,
3.1640625000,50,-141.4358041818,10.0000000000,41.0000000000,,,
3.1718750000,50,-129.6305796244,10.0000000000,41.0000000000,,,
3.1796875000,50,-116.1618404948,10.0000000000,41.0000000000,,,
3.1875000000,51,-77.9737174919,10.0000000000,41.0000000000,,,
3.1953125000,51,-47.9121123057,10.0000000000,41.0000000000,,,
3.2031250000,51,-41.1629361620,10.0000000000,41.0000000000,,,
3.2109375000,51,-24.6088651017,9.9776608806,40.8734116569,,,
3.2187500000,51,-0.6365092961,9.1907003211,36.4139684860,,,
3.2265625000,51,4.7747149253,7.4977400415,26.8205269020,,,
3.2343750000,51,16.9931353539,6.6739022815,22.1521129288,,,
3.2421875000,51,38.3294777253,6.8539360566,23.1723043205,,,
3.2500000000,52,65.1080724781,7.0846948573,24.4799375246,,,
3.2578125000,52,71.4111635142,7.0534481800,24.3028730200,,,
3.2656250000,52,59.7202246253,6.9797027055,23.8849819976,,,
3.2734375000,52,40.9501714222,6.9809560632,23.8920843581,,,
3.2812500000,52,36.5166447145,7.0039148550,24.0221841786,,,
3.2890625000,52,67.5434432218,7.0063216260,24.0358225475,,,
3.2968750000,52,102.4443158735,6.9995593884,23.9975032009,,,
3.3046875000,52,106.5868183680,6.9980049908,23.9886949480,,,
3.3125000000,53,86.2340314013,6.9998952503,23.9994064182,,,
3.3203125000,53,79.9675153233,7.0006003919,24.0034022207,,,
3.3281250000,53,66.0729512240,7.0001044863,24.0005920891,,,
3.3359375000,53,57.0377820839,6.9998281048,23.9990259269,,,
3.3437500000,53,72.1307376070,6.9999471953,23.9997007733,,,
3.3515625000,53,95.0682176385,7.0000464578,24.0002632610,,,
3.3593750000,53,93.2782819542,7.0000218193,24.0001236429,,,
3.3671875000,53,74.4208220152,6.9999883528,23.9999339994,,,
3.3750000000,54,71.0630673358,6.9999918932,23.9999540615,,,
3.3828125000,54,78.4287435638,7.0000026025,24.0000147474,,,
3.3906250000,54,92.8792914174,7.0000028043,24.0000158910,,,
3.3984375000,54,102.2016108180,6.9999995381,23.9999973823,,,
3.4062500000,54,91.7296549228,6.9999990827,23.9999948021,,,
3.4140625000,54,71.1993491165,7.0000000315,24.0000001784,,,
3.4218750000,54,75.1177384484,7.0000002856,24.0000016186,,,
3.4296875000,54,82.4043223516,7.0000000247,24.0000001401,,,
3.4375000000,55,90.2973761978,6.9999999152,23.9999995195,,,
3.4453125000,55,89.2101087947,6.9999999822,23.9999998991,,,
3.4531250000,55,70.5498828727,7.0000000239,24.0000001355,,,
3.4609375000,55,43.5230990776,7.0000000084,24.0000000473,,,
3.4687500000,55,37.5012172189,6.9999999937,23.9999999641,,,
3.4765625000,55,41.9008234289,6.9999999967,23.9999999811,,,
3.4843750000,55,60.5761268180,7.0000000015,24.0000000088,,,
3.4921875000,55,80.3286302778,7.0000000012,24.0000000069,,,
3.5000000000,56,64.7622353065,6.9999999997,23.9999999981,,,
3.5078125000,56,39.5154298599,6.9999999996,23.9999999977,,,
3.5156250000,56,44.5618528886,7.0000000001,24.0000000003,,,
3.5234375000,56,57.9564177153,7.0000000001,24.0000000008,,,
3.5312500000,56,31.7040270544,7.0000000000,24.0000000000,,,
3.5390625000,56,7.0760484010,7.0000000000,23.9999999998,,,
3.5468750000,56,19.8854276778,7.0000000000,24.0000000000,,,
3.5546875000,56,54.8055026661,7.0000000000,24.0000000001,,,
3.5625000000,57,46.1897573646,7.0000000000,24.0000000000,,,
3.5703125000,57,24.4459064745,7.0000000000,24.0000000000,,,
3.5781250000,57,27.8720097520,7.0000000000,24.0000000000,,,
3.5859375000,57,52.6342122886,7.0000000000,24.0000000000,,,
3.5937500000,57,68.3322047741,7.0000000000,24.0000000000,,,
3.6015625000,57,66.4965151232,7.0000000000,24.0000000000,,,
3.6093750000,57,67.5000776853,7.0000000000,24.0000000000,,,
3.6171875000,57,64.0924387566,7.0000000000,24.0000000000,,,
3.6250000000,58,37.2373215122,7.0000000000,24.0000000000,,,
3.6328125000,58,27.8421280675,7.0000000000,24.0000000000,,,
3.6406250000,58,71.7195921513,7.0000000000,24.0000000000,,,
3.6484375000,58,99.0104066250,7.0000000000,24.0000000000,,,
3.6562500000,58,79.0672738441,7.0000000000,24.0000000000,,,
3.6640625000,58,51.4357656442,7.0000000000,24.0000000000,,,
3.6718750000,58,38.7548834900,7.0000000000,24.0000000000,,,
3.6796875000,58,29.4502409249,7.0000000000,24.0000000000,,,
3.6875000000,59,26.3727615271,7.0000000000,24.0000000000,,,
3.6953125000,59,14.7323204449,7.0000000000,24.0000000000,,,
3.7031250000,59,25.7220678208,7.0000000000,24.0000000000,,,
3.7109375000,59,43.1656543342,7.0000000000,24.0000000000,,,
3.7187500000,59,28.3247424263,7.0000000000,24.0000000000,,,
3.7265625000,59,14.2452806021,7.0000000000,24.0000000000,,,
3.7343750000,59,28.0236664698,7.0000000000,24.0000000000,,,
3.7421875000,59,40.6813596390,7.0000000000,24.0000000000,,,
3.7500000000,60,37.0652292043,7.0000000000,24.0000000000,,,
3.7578125000,60,46.6772666616,7.0000000000,24.0000000000,,,
3.7656250000,60,38.9783868114,7.0000000000,24.0000000000,,,
3.7734375000,60,36.4289837059,7.0000000000,24.0000000000,,,
3.7812500000,60,82.0608512634,7.0000000000,24.0000000000,,,
3.7890625000,60,142.0522384779,7.0000000000,24.0000000000,,,
3.7968750000,60,191.3241440106,7.0000000000,24.0000000000,,,
3.8046875000,60,257.5900710335,7.0000000000,24.0000000000,,,
3.8125000000,61,376.2034477147,7.0000000000,24.0000000000,,,
3.8203125000,61,538.1173074825,7.0000000000,24.0000000000,,,
3.8281250000,61,661.9661323427,7.0000000000,24.0000000000,,,
3.8359375000,61,682.6383004122,7.0000000000,24.0000000000,,,
3.8437500000,61,591.4757070767,7.0000000000,24.0000000000,,,
3.8515625000,61,473.2893764779,7.0000000000,24.0000000000,,,
3.8593750000,61,377.6816606590,7.0000000000,24.0000000000,,,
3.8671875000,61,268.1604282144,7.0000000000,24.0000000000,,,
3.8750000000,62,110.3613794943,7.0000000000,24.0000000000,,,
3.8828125000,62,-48.5992881007,7.0000000000,24.0000000000,,,
3.8906250000,62,-133.4885581373,7.0000000000,24.0000000000,,,
3.8984375000,62,-189.1916599865,7.0000000000,24.0000000000,,,
3.9062500000,62,-262.3325452723,7.0000000000,24.0000000000,,,
3.9140625000,62,-340.2791727641,7.0000000000,24.0000000000,,,
3.9218750000,62,-357.0210710973,7.0000000000,24.0000000000,,,
3.9296875000,62,-361.8903092035,7.0000000000,24.0000000000,,,
3.9375000000,63,-404.3861161927,7.0000000000,24.0000000000,,,
3.9453125000,63,-418.5065867049,7.0000000000,24.0000000000,,,
3.9531250000,63,-382.2810100278,7.0000000000,24.0000000000,,,
3.9609375000,63,-345.5356011571,7.0000000000,24.0000000000,,,
3.9687500000,63,-324.5210038136,7.0000000000,24.0000000000,,,
3.9765625000,63,-323.1730787788,7.0000000000,24.0000000000,,,
3.9843750000,63,-310.4316584957,7.0000000000,24.0000000000,,,
3.9921875000,63,-257.6225675787,7.0000000000,24.0000000000,,,
4.0000000000,64,-187.6410729827,7.0000000000,24.0000000000,,,
4.0078125000,64,-134.9718239205,7.0000000000,24.0000000000,,,
4.0156250000,64,-105.5568879140,7.0000000000,24.0000000000,,,
4.0234375000,64,-84.9221887425,7.0000000000,24.0000000000,,,
4.0312500000,64,-72.2688326612,7.0000000000,24.0000000000,,,
4.0390625000,64,-54.7657120751,7.0000000000,24.0000000000,,,
4.0468750000,64,-3.6956285289,7.0000000000,24.0000000000,,,
4.0546875000,64,52.7008832986,7.0000000000,24.0000000000,,,
4.0625000000,65,75.2300795267,7.0000000000,24.0000000000,,,
4.0703125000,65,56.9837963312,7.0000000000,24.0000000000,,,
4.0781250000,65,9.3627016246,7.0000000000,24.0000000000,,,
4.0859375000,65,21.6655009594,7.0000000000,24.0000000000,,,
4.0937500000,65,82.0703906610,7.0000000000,24.0000000000,,,
4.1015625000,65,114.3952267096,7.0000000000,24.0000000000,,,
4.1093750000,65,121.5782503959,7.0000000000,24.0000000000,,,
4.1171875000,65,115.4860469030,7.0000000000,24.0000000000,,,
4.1250000000,66,90.7400087222,7.0000000000,24.0000000000,,,
4.1328125000,66,76.0634870509,7.0000000000,24.0000000000,,,
4.1406250000,66,91.8996797469,7.0000000000,24.0000000000,,,
4.1484375000,66,104.0913992438,7.0000000000,24.0000000000,,,
4.1562500000,66,137.9347005106,7.0000000000,24.0000000000,,,
4.1640625000,66,182.6945124290,7.0000000000,24.0000000000,,,
4.1718750000,66,198.0810422957,7.0000000000,24.0000000000,,,
4.1796875000,66,171.8935219072,7.0000000000,24.0000000000,,,
4.1875000000,67,140.0766945569,7.0000000000,24.0000000000,,,
4.1953125000,67,114.1721432992,7.0000000000,24.0000000000,,,
4.2031250000,67,80.7027028292,7.0000000000,24.0000000000,,,
4.2109375000,67,64.7990952636,6.9553217613,24.0819101043,,,
4.2187500000,67,70.3942925348,5.3814006421,26.9674321561,,,
4.2265625000,67,79.6076819342,1.9954800830,33.1749531811,,,
4.2343750000,67,74.4435049100,0.3478045631,36.1956916343,,,
4.2421875000,67,51.0676233502,0.7078721131,35.5355677926,,,
4.2500000000,68,24.2835389011,1.1693897146,34.6894521899,,,
4.2578125000,68,22.2362966818,1.1068963600,34.8040233400,,,
4.2656250000,68,44.2413620471,0.9594054109,35.0744234133,,,
4.2734375000,68,47.8818340629,0.9619121264,35.0698277683,,,
4.2812500000,68,38.7586324444,1.0078297101,34.9856455315,,,
4.2890625000,68,61.8604067412,1.0126432521,34.9768207046,,,
4.2968750000,68,84.9694937651,0.9991187768,35.0016155759,,,
4.3046875000,68,102.9715754672,0.9960099817,35.0073150336,,,
4.3125000000,69,102.7491029281,0.9997905005,35.0003840824,,,
4.3203125000,69,76.1350144167,1.0012007838,34.9977985631,,,
4.3281250000,69,56.2732457794,1.0002089726,34.9996168835,,,
4.3359375000,69,64.1340746508,0.9996562095,35.0006302826,,,
4.3437500000,69,77.4678117819,0.9998943906,35.0001936173,,,
4.3515625000,69,69.3497201842,1.0000929156,34.9998296547,,,
4.3593750000,69,43.8758160790,1.0000436387,34.9999199958,,,
4.3671875000,69,33.2968250174,0.9999767057,35.0000427063,,,
4.3750000000,70,51.9940881244,0.9999837864,35.0000297249,,,
4.3828125000,70,52.0431158353,1.0000052050,34.9999904575,,,
4.3906250000,70,37.2073443517,1.0000056086,34.9999897176,,,
4.3984375000,70,49.3050599093,0.9999990761,35.0000016938,,,
4.4062500000,70,87.2107108512,0.9999981654,35.0000033634,,,
4.4140625000,70,92.8780281837,1.0000000630,34.9999998846,,,
4.4218750000,70,65.2010330793,1.0000005713,34.9999989527,,,
4.4296875000,70,78.9470367025,1.0000000494,34.9999999093,,,
4.4375000000,71,110.9865907384,0.9999998304,35.0000003109,,,
4.4453125000,71,96.9902835500,0.9999999644,35.0000000653,,,
4.4531250000,71,52.4036611231,1.0000000478,34.9999999123,,,
4.4609375000,71,38.1049608347,1.0000000167,34.9999999694,,,
4.4687500000,71,56.7228776643,0.9999999873,35.0000000232,,,
4.4765625000,71,75.1977824230,0.9999999933,35.0000000122,,,
4.4843750000,71,89.9367824160,1.0000000031,34.9999999943,,,
4.4921875000,71,103.2048732226,1.0000000024,34.9999999956,,,
4.5000000000,72,63.6610041150,0.9999999993,35.0000000012,,,
4.5078125000,72,45.2570384993,0.9999999992,35.0000000015,,,
4.5156250000,72,78.6583412035,1.0000000001,34.9999999998,,,
4.5234375000,72,77.6219366603,1.0000000003,34.9999999995,,,
4.5312500000,72,39.2117984796,1.0000000000,35.0000000000,,,
4.5390625000,72,45.3291026237,0.9999999999,35.0000000001,,,
4.5468750000,72,72.0764431054,1.0000000000,35.0000000000,,,
4.5546875000,72,62.1500822922,1.0000000000,35.0000000000,,,
4.5625000000,73,32.3729638291,1.0000000000,35.0000000000,,,
4.5703125000,73,17.8028266743,1.0000000000,35.0000000000,,,
4.5781250000,73,2.2826285576,1.0000000000,35.0000000000,,,
4.5859375000,73,0.0944744540,1.0000000000,35.0000000000,,,
4.5937500000,73,10.8433245616,1.0000000000,35.0000000000,,,
4.6015625000,73,-0.8110159722,1.0000000000,35.0000000000,,,
4.6093750000,73,21.0641693513,1.0000000000,35.0000000000,,,
4.6171875000,73,52.7185277641,1.0000000000,35.0000000000,,,
4.6250000000,74,50.9043354673,1.0000000000,35.0000000000,,,
4.6328125000,74,20.8869126942,1.0000000000,35.0000000000,,,
4.6406250000,74,4.8938994486,1.0000000000,35.0000000000,,,
4.6484375000,74,20.5146015827,1.0000000000,35.0000000000,,,
4.6562500000,74,32.8137201467,1.0000000000,35.0000000000,,,
4.6640625000,74,24.3827272953,1.0000000000,35.0000000000,,,
4.6718750000,74,26.9570317103,1.0000000000,35.0000000000,,,
4.6796875000,74,48.4106201963,1.0000000000,35.0000000000,,,
4.6875000000,75,56.0927528184,1.0000000000,35.0000000000,,,
4.6953125000,75,36.1169197811,1.0000000000,35.0000000000,,,
4.7031250000,75,18.1921605935,1.0000000000,35.0000000000,,,
4.7109375000,75,3.0502484121,1.0000000000,35.0000000000,,,
4.7187500000,75,-7.8105113960,1.0000000000,35.0000000000,,,
4.7265625000,75,31.6434527226,1.0000000000,35.0000000000,,,
4.7343750000,75,68.0912511430,1.0000000000,35.0000000000,,,
4.7421875000,75,51.1795940107,1.0000000000,35.0000000000,,,
4.7500000000,76,11.7439945062,1.0000000000,35.0000000000,,,
4.7578125000,76,20.1014584857,1.0000000000,35.0000000000,,,
4.7656250000,76,42.0328072946,1.0000000000,35.0000000000,,,
4.7734375000,76,14.2336110587,1.0000000000,35.0000000000,,,
4.7812500000,76,-6.3826926178,1.0000000000,35.0000000000,,,
4.7890625000,76,15.7814885645,1.0000000000,35.0000000000,,,
4.7968750000,76,37.6686283467,1.0000000000,35.0000000000,,,
4.8046875000,76,4.0517907141,1.0000000000,35.0000000000,,,
4.8125000000,77,-34.6899128258,1.0000000000,35.0000000000,,,
4.8203125000,77,-11.2957974358,1.0000000000,35.0000000000,,,
4.8281250000,77,11.7039780206,1.0000000000,35.0000000000,,,
4.8359375000,77,5.2508533734,1.0000000000,35.0000000000,,,
4.8437500000,77,5.4812152423,1.0000000000,35.0000000000,,,
4.8515625000,77,0.6385287702,1.0000000000,35.0000000000,,,
4.8593750000,77,10.9362098525,1.0000000000,35.0000000000,,,
4.8671875000,77,34.0044275053,1.0000000000,35.0000000000,,,
4.8750000000,78,48.9477396520,1.0000000000,35.0000000000,,,
4.8828125000,78,58.4978525187,1.0000000000,35.0000000000,,,
4.8906250000,78,90.5001067552,1.0000000000,35.0000000000,,,
4.8984375000,78,129.5544053731,1.0000000000,35.0000000000,,,
4.9062500000,78,142.5303386324,1.0000000000,35.0000000000,,,
4.9140625000,78,127.3440024706,1.0000000000,35.0000000000,,,
4.9218750000,78,110.0427052371,1.0000000000,35.0000000000,,,
4.9296875000,78,97.4045083541,1.0000000000,35.0000000000,,,
4.9375000000,79,75.2180724465,1.0000000000,35.0000000000,,,
4.9453125000,79,47.7462114938,1.0000000000,35.0000000000,,,
4.9531250000,79,40.8512979438,1.0000000000,35.0000000000,,,
4.9609375000,79,69.4235069335,1.0000000000,35.0000000000,,,
4.9687500000,79,84.3391464859,1.0000000000,35.0000000000,,,
4.9765625000,79,73.2384317753,1.0000000000,35.0000000000,,,
4.9843750000,79,39.5878583210,1.0000000000,35.0000000000,,,
4.9921875000,79,13.5665355819,1.0000000000,35.0000000000,,,
5.0000000000,80,38.2654650813,1.0000000000,35.0000000000,,,
5.0078125000,80,56.4205164535,1.0000000000,35.0000000000,,,
5.0156250000,80,42.1560527965,1.0000000000,35.0000000000,,,
5.0234375000,80,57.2919336822,1.0000000000,35.0000000000,,,
5.0312500000,80,80.9810676354,1.0000000000,35.0000000000,,,
5.0390625000,80,80.7938776470,1.0000000000,35.0000000000,,,
5.0468750000,80,52.4117905419,1.0000000000,35.0000000000,,,
5.0546875000,80,24.0955997733,1.0000000000,35.0000000000,,,
5.0625000000,81,20.4459440495,1.0000000000,35.0000000000,,,
5.0703125000,81,19.9350573898,1.0000000000,35.0000000000,,,
5.0781250000,81,20.8369315520,1.0000000000,35.0000000000,,,
5.0859375000,81,26.8177763921,1.0000000000,35.0000000000,,,
5.0937500000,81,36.0999241914,1.0000000000,35.0000000000,,,
5.1015625000,81,68.2823152875,1.0000000000,35.0000000000,,,
5.1093750000,81,92.5863621957,1.0000000000,35.0000000000,,,
5.1171875000,81,62.9882786773,1.0000000000,35.0000000000,,,
5.1250000000,82,23.7432871854,1.0000000000,35.0000000000,,,
5.1328125000,82,22.8117764649,1.0000000000,35.0000000000,,,
5.1406250000,82,34.7058656318,1.0000000000,35.0000000000,,,
5.1484375000,82,39.9549594666,1.0000000000,35.0000000000,,,
5.1562500000,82,16.8731304016,1.0000000000,35.0000000000,,,
5.1640625000,82,-14.1924753171,1.0000000000,35.0000000000,,,
5.1718750000,82,16.7128104163,1.0000000000,35.0000000000,,,
5.1796875000,82,64.5101195761,1.0000000000,35.0000000000,,,
5.1875000000,83,57.6271863548,1.0000000000,35.0000000000,,,
5.1953125000,83,26.9936983386,1.0000000000,35.0000000000,,,
5.2031250000,83,2.0042494627,1.0000000000,35.0000000000,,,
5.2109375000,83,17.8493190562,1.0670173581,35.0446782387,,,
5.2187500000,83,60.0947398102,3.4278990368,36.6185993579,,,
5.2265625000,83,84.8393578714,8.5067798754,40.0045199170,,,
5.2343750000,83,110.5447126694,10.9782931554,41.6521954369,,,
5.2421875000,83,157.9052719579,10.4381918303,41.2921278869,,,
5.2500000000,84,213.7142897610,9.7459154281,40.8306102854,,,
5.2578125000,84,301.1128429838,9.8396554600,40.8931036400,,,
5.2656250000,84,364.1232364339,10.0608918836,41.0405945891,,,
5.2734375000,84,368.9869647737,10.0571318104,41.0380878736,,,
5.2812500000,84,341.2173747215,9.9882554349,40.9921702899,,,
5.2890625000,84,255.8543958253,9.9810351219,40.9873567479,,,
5.2968750000,84,134.8691603650,10.0013218348,41.0008812232,,,
5.3046875000,84,50.4824050000,10.0059850275,41.0039900183,,,
5.3125000000,85,6.7346172256,10.0003142492,41.0002094995,,,
5.3203125000,85,-46.2610525249,9.9981988243,40.9987992162,,,
5.3281250000,85,-108.8749501452,9.9996865410,40.9997910274,,,
5.3359375000,85,-159.0625133349,10.0005156857,41.0003437905,,,
5.3437500000,85,-198.7627646693,10.0001584141,41.0001056094,,,
5.3515625000,85,-221.4722039217,9.9998606265,40.9999070844,,,
5.3593750000,85,-215.9283708561,9.9999345420,40.9999563613,,,
5.3671875000,85,-198.9454099074,10.0000349415,41.0000232943,,,
5.3750000000,86,-161.7313648607,10.0000243204,41.0000162136,,,
5.3828125000,86,-110.6887343841,9.9999921925,40.9999947950,,,
5.3906250000,86,-107.4044140190,9.9999915871,40.9999943914,,,
5.3984375000,86,-135.7674972746,10.0000013858,41.0000009239,,,
5.4062500000,86,-137.7788451102,10.0000027518,41.0000018346,,,
5.4140625000,86,-103.3040237186,9.9999999056,40.9999999370,,,
5.4218750000,86,-86.4427100706,9.9999991431,40.9999994287,,,
5.4296875000,86,-81.1819482150,9.9999999258,40.9999999506,,,
5.4375000000,87,-68.3060937670,10.0000002544,41.0000001696,,,
5.4453125000,87,-43.6777137164,10.0000000534,41.0000000356,,,
5.4531250000,87,-10.8850594004,9.9999999283,40.9999999522,,,
5.4609375000,87,13.2171002755,9.9999999749,40.9999999833,,,
5.4687500000,87,13.5717704618,10.0000000190,41.0000000127,,,
5.4765625000,87,26.0962761968,10.0000000100,41.0000000067,,,
5.4843750000,87,43.1507954012,9.9999999954,40.9999999969,,,
5.4921875000,87,56.3578832012,9.9999999964,40.9999999976,,,
5.5000000000,88,61.4238102860,10.0000000010,41.0000000007,,,
5.5078125000,88,71.9293693570,10.0000000012,41.0000000008,,,
5.5156250000,88,90.9669460449,9.9999999998,40.9999999999,,,
5.5234375000,88,93.0597155540,9.9999999996,40.9999999997,,,
5.5312500000,88,76.6727310161,10.0000000000,41.0000000000,,,
5.5390625000,88,65.2782309850,10.0000000001,41.0000000001,,,
5.5468750000,88,61.5085489691,10.0000000000,41.0000000000,,,
5.5546875000,88,56.1396668437,10.0000000000,41.0000000000,,,
5.5625000000,89,53.9970806666,10.0000000000,41.0000000000,,,
5.5703125000,89,54.0830868702,10.0000000000,41.0000000000,,,
5.5781250000,89,59.5930029832,10.0000000000,41.0000000000,,,
5.5859375000,89,37.0752737096,10.0000000000,41.0000000000,,,
5.5937500000,89,62.0175596795,10.0000000000,41.0000000000,,,
5.6015625000,89,114.2433727346,10.0000000000,41.0000000000,,,
5.6093750000,89,92.0099195153,10.0000000000,41.0000000000,,,
5.6171875000,89,65.1729481639,10.0000000000,41.0000000000,,,
5.6250000000,90,69.0457489682,10.0000000000,41.0000000000,,,
5.6328125000,90,66.2126299747,10.0000000000,41.0000000000,,,
5.6406250000,90,45.2383938609,10.0000000000,41.0000000000,,,
5.6484375000,90,18.4470842744,10.0000000000,41.0000000000,,,
5.6562500000,90,10.7441989185,10.0000000000,41.0000000000,,,
5.6640625000,90,52.2312443371,10.0000000000,41.0000000000,,,
5.6718750000,90,84.1241009826,10.0000000000,41.0000000000,,,
5.6796875000,90,70.4489691934,10.0000000000,41.0000000000,,,
5.6875000000,91,48.0797263232,10.0000000000,41.0000000000,,,
5.6953125000,91,26.1663805601,10.0000000000,41.0000000000,,,
5.7031250000,91,13.1402957292,10.0000000000,41.0000000000,,,
5.7109375000,91,34.2834119454,10.0000000000,41.0000000000,,,
5.7187500000,91,35.1833956428,10.0000000000,41.0000000000,,,
5.7265625000,91,21.4014642777,10.0000000000,41.0000000000,,,
5.7343750000,91,4.6770988914,10.0000000000,41.0000000000,,,
5.7421875000,91,-0.0504021106,10.0000000000,41.0000000000,,,
5.7500000000,92,25.7139785390,10.0000000000,41.0000000000,,,
5.7578125000,92,44.9962025344,10.0000000000,41.0000000000,,,
5.7656250000,92,29.9119626726,10.0000000000,41.0000000000,,,
5.7734375000,92,20.4335104965,10.0000000000,41.0000000000,,,
5.7812500000,92,50.2195018745,10.0000000000,41.0000000000,,,
5.7890625000,92,78.8066083178,10.0000000000,41.0000000000,,,
5.7968750000,92,86.9618811125,10.0000000000,41.0000000000,,,
5.8046875000,92,78.7323633317,10.0000000000,41.0000000000,,,
5.8125000000,93,68.4467489949,10.0000000000,41.0000000000,,,
5.8203125000,93,77.2062391319,10.0000000000,41.0000000000,,,
5.8281250000,93,109.8890676791,10.0000000000,41.0000000000,,,
5.8359375000,93,136.3725858257,10.0000000000,41.0000000000,,,
5.8437500000,93,155.3020387482,10.0000000000,41.0000000000,,,
5.8515625000,93,210.6672930451,10.0000000000,41.0000000000,,,
5.8593750000,93,285.2903761602,10.0000000000,41.0000000000,,,
5.8671875000,93,343.7675847780,10.0000000000,41.0000000000,,,
5.8750000000,94,365.4835016207,10.0000000000,41.0000000000,,,
5.8828125000,94,377.9344442641,10.0000000000,41.0000000000,,,
5.8906250000,94,377.3479067320,10.0000000000,41.0000000000,,,
5.8984375000,94,327.7041012677,10.0000000000,41.0000000000,,,
5.9062500000,94,237.0337140379,10.0000000000,41.0000000000,,,
5.9140625000,94,153.1730354256,10.0000000000,41.0000000000,,,
5.9218750000,94,68.0998927700,10.0000000000,41.0000000000,,,
5.9296875000,94,-12.4892009370,10.0000000000,41.0000000000,,,
5.9375000000,95,-80.5712060170,10.0000000000,41.0000000000,,,
5.9453125000,95,-150.7138535204,10.0000000000,41.0000000000,,,
5.9531250000,95,-206.0711501997,10.0000000000,41.0000000000,,,
5.9609375000,95,-208.3289622396,10.0000000000,41.0000000000,,,
5.9687500000,95,-198.8588892894,10.0000000000,41.0000000000,,,
5.9765625000,95,-221.9846595224,10.0000000000,41.0000000000,,,
5.9843750000,95,-234.0435980931,10.0000000000,41.0000000000,,,
5.9921875000,95,-245.7788244839,10.0000000000,41.0000000000,,,
6.0000000000,96,-257.2309035742,10.0000000000,41.0000000000,,,
6.0078125000,96,-243.4332635804,10.0000000000,41.0000000000,,,
6.0156250000,96,-197.0362009338,10.0000000000,41.0000000000,,,
6.0234375000,96,-160.4054690369,10.0000000000,41.0000000000,,,
6.0312500000,96,-147.6386533033,10.0000000000,41.0000000000,,,
6.0390625000,96,-170.6209944854,10.0000000000,41.0000000000,,,
6.0468750000,96,-176.5049516987,10.0000000000,41.0000000000,,,
6.0546875000,96,-103.7626905229,10.0000000000,41.0000000000,,,
6.0625000000,97,-9.8167717706,10.0000000000,41.0000000000,,,
6.0703125000,97,8.2488742653,10.0000000000,41.0000000000,,,
6.0781250000,97,-12.6503644253,10.0000000000,41.0000000000,,,
6.0859375000,97,-4.3880719343,10.0000000000,41.0000000000,,,
6.0937500000,97,16.6039405146,10.0000000000,41.0000000000,,,
6.1015625000,97,20.6892700564,10.0000000000,41.0000000000,,,
6.1093750000,97,41.8040200377,10.0000000000,41.0000000000,,,
6.1171875000,97,78.7089832313,10.0000000000,41.0000000000,,,
6.1250000000,98,77.7219918474,10.0000000000,41.0000000000,,,
6.1328125000,98,65.6153832507,10.0000000000,41.0000000000,,,
6.1406250000,98,72.6589026924,10.0000000000,41.0000000000,,,
6.1484375000,98,84.7472919907,10.0000000000,41.0000000000,,,
6.1562500000,98,79.7499995848,10.0000000000,41.0000000000,,,
6.1640625000,98,60.2832107407,10.0000000000,41.0000000000,,,
6.1718750000,98,70.6109374978,10.0000000000,41.0000000000,,,
6.1796875000,98,101.9732701189,10.0000000000,41.0000000000,,,
6.1875000000,99,97.6747429659,10.0000000000,41.0000000000,,,
6.1953125000,99,82.2441646997,10.0000000000,41.0000000000,,,
6.2031250000,99,84.8164801466,10.0000000000,41.0000000000,,,
6.2109375000,99,79.2903060779,10.0446782387,41.0521246118,,,
6.2187500000,99,41.9683834457,11.6185993579,42.8883659175,,,
6.2265625000,99,34.5998521765,15.0045199170,46.8386065698,,,
6.2343750000,99,86.4649965139,16.6521954369,48.7608946764,,,
6.2421875000,99,109.4871282083,16.2921278869,48.3408158680,,,
6.2500000000,100,83.1739487555,15.8306102854,47.8023786663,,,
6.2578125000,100,52.5391270112,15.8931036400,47.8752875800,,,
6.2656250000,100,53.8011449476,16.0405945891,48.0473603539,,,
6.2734375000,100,55.8118694470,16.0380878736,48.0444358526,,,
6.2812500000,100,60.3049831130,15.9921702899,47.9908653382,,,
6.2890625000,100,88.2727113400,15.9873567479,47.9852495393,,,
6.2968750000,100,107.2153128447,16.0008812232,48.0010280937,,,
6.3046875000,100,114.2203423220,16.0039900183,48.0046550214,,,
6.3125000000,101,121.6427375237,16.0002094995,48.0002444161,,,
6.3203125000,101,93.8565318422,15.9987992162,47.9985990856,,,
6.3281250000,101,71.2239864558,15.9997910274,47.9997561986,,,
6.3359375000,101,91.0332896136,16.0003437905,48.0004010889,,,
6.3437500000,101,108.5508630709,16.0001056094,48.0001232110,,,
6.3515625000,101,110.4327183052,15.9999070844,47.9998915984,,,
6.3593750000,101,74.9371276376,15.9999563613,47.9999490882,,,
6.3671875000,101,54.0452637205,16.0000232943,48.0000271767,,,
6.3750000000,102,54.1610814175,16.0000162136,48.0000189159,,,
6.3828125000,102,32.1205774474,15.9999947950,47.9999939275,,,
6.3906250000,102,36.0475103710,15.9999943914,47.9999934566,,,
6.3984375000,102,77.3704412653,16.0000009239,48.0000010779,,,
6.4062500000,102,83.8115255517,16.0000018346,48.0000021403,,,
6.4140625000,102,67.4881264914,15.9999999370,47.9999999266,,,
6.4218750000,102,66.4900216835,15.9999994287,47.9999993335,,,
6.4296875000,102,63.2598456885,15.9999999506,47.9999999423,,,
6.4375000000,103,27.1473335118,16.0000001696,48.0000001978,,,
6.4453125000,103,5.5518588079,16.0000000356,48.0000000416,,,
6.4531250000,103,38.9069448339,15.9999999522,47.9999999442,,,
6.4609375000,103,61.4624135544,15.9999999833,47.9999999805,,,
6.4687500000,103,49.8174773750,16.0000000127,48.0000000148,,,
6.4765625000,103,42.0515679228,16.0000000067,48.0000000078,,,
6.4843750000,103,54.2379208090,15.9999999969,47.9999999964,,,
6.4921875000,103,57.1912846710,15.9999999976,47.9999999972,,,
6.5000000000,104,39.4098928082,16.0000000007,48.0000000008,,,
6.5078125000,104,27.8910555238,16.0000000008,48.0000000010,,,
6.5156250000,104,38.0311733263,15.9999999999,47.9999999999,,,
6.5234375000,104,49.9170590096,15.9999999997,47.9999999997,,,
6.5312500000,104,48.2347839379,16.0000000000,48.0000000000,,,
6.5390625000,104,28.6222498717,16.0000000001,48.0000000001,,,
6.5468750000,104,23.0296431237,16.0000000000,48.0000000000,,,
6.5546875000,104,18.4718425561,16.0000000000,48.0000000000,,,
6.5625000000,105,-7.0838578525,16.0000000000,48.0000000000,,,
6.5703125000,105,-15.2613136665,16.0000000000,48.0000000000,,,
6.5781250000,105,4.6867258605,16.0000000000,48.0000000000,,,
6.5859375000,105,14.3950884818,16.0000000000,48.0000000000,,,
6.5937500000,105,-2.5929625664,16.0000000000,48.0000000000,,,
6.6015625000,105,-1.6633669509,16.0000000000,48.0000000000,,,
6.6093750000,105,14.4991569041,16.0000000000,48.0000000000,,,
6.6171875000,105,11.4945487319,16.0000000000,48.0000000000,,,
6.6250000000,106,-15.0845955837,16.0000000000,48.0000000000,,,
6.6328125000,106,-29.5974258084,16.0000000000,48.0000000000,,,
6.6406250000,106,-20.1697337352,16.0000000000,48.0000000000,,,
6.6484375000,106,0.2322140835,16.0000000000,48.0000000000,,,
6.6562500000,106,5.4049190676,16.0000000000,48.0000000000,,,
6.6640625000,106,24.9714754055,16.0000000000,48.0000000000,,,
6.6718750000,106,60.3936731198,16.0000000000,48.0000000000,,,
6.6796875000,106,65.1169780328,16.0000000000,48.0000000000,,,
6.6875000000,107,29.8534503982,16.0000000000,48.0000000000,,,
6.6953125000,107,5.5831964188,16.0000000000,48.0000000000,,,
6.7031250000,107,31.7013556908,16.0000000000,48.0000000000,,,
6.7109375000,107,49.9760184586,16.0000000000,48.0000000000,,,
6.7187500000,107,48.9304608446,16.0000000000,48.0000000000,,,
6.7265625000,107,60.1359214418,16.0000000000,48.0000000000,,,
6.7343750000,107,99.7613559769,16.0000000000,48.0000000000,,,
6.7421875000,107,114.8493714565,16.0000000000,48.0000000000,,,
6.7500000000,108,101.6808528413,16.0000000000,48.0000000000,,,
6.7578125000,108,98.5471395278,16.0000000000,48.0000000000,,,
6.7656250000,108,89.3187250553,16.0000000000,48.0000000000,,,
6.7734375000,108,75.5388414467,16.0000000000,48.0000000000,,,
6.7812500000,108,78.9106788564,16.0000000000,48.0000000000,,,
6.7890625000,108,62.8780598110,16.0000000000,48.0000000000,,,
6.7968750000,108,37.0291094277,16.0000000000,48.0000000000,,,
6.8046875000,108,20.0249487479,16.0000000000,48.0000000000,,,
6.8125000000,109,4.2593620251,16.0000000000,48.0000000000,,,
6.8203125000,109,-0.7047264247,16.0000000000,48.0000000000,,,
6.8281250000,109,1.6346319761,16.0000000000,48.0000000000,,,
6.8359375000,109,0.6922524205,16.0000000000,48.0000000000,,,
6.8437500000,109,-9.6657671240,16.0000000000,48.0000000000,,,
6.8515625000,109,-7.6955973653,16.0000000000,48.0000000000,,,
6.8593750000,109,0.6159243609,16.0000000000,48.0000000000,,,
6.8671875000,109,23.3334590714,16.0000000000,48.0000000000,,,
6.8750000000,110,42.1754010654,16.0000000000,48.0000000000,,,
6.8828125000,110,40.2342300903,16.0000000000,48.0000000000,,,
6.8906250000,110,36.5277556863,16.0000000000,48.0000000000,,,
6.8984375000,110,34.7101199275,16.0000000000,48.0000000000,,,
6.9062500000,110,29.0350718673,16.0000000000,48.0000000000,,,
6.9140625000,110,15.5914659905,16.0000000000,48.0000000000,,,
6.9218750000,110,18.1917842525,16.0000000000,48.0000000000,,,
6.9296875000,110,57.7684350999,16.0000000000,48.0000000000,,,
6.9375000000,111,69.0103369427,16.0000000000,48.0000000000,,,
6.9453125000,111,36.7032806050,16.0000000000,48.0000000000,,,
6.9531250000,111,15.6501658667,16.0000000000,48.0000000000,,,
6.9609375000,111,4.7172330125,16.0000000000,48.0000000000,,,
6.9687500000,111,-10.8529740672,16.0000000000,48.0000000000,,,
6.9765625000,111,0.3983107673,16.0000000000,48.0000000000,,,
6.9843750000,111,52.9510685520,16.0000000000,48.0000000000,,,
6.9921875000,111,75.4890613111,16.0000000000,48.0000000000,,,
7.0000000000,112,73.3439153274,16.0000000000,48.0000000000,,,
7.0078125000,112,96.0001833501,16.0000000000,48.0000000000,,,
7.0156250000,112,120.6129506648,16.0000000000,48.0000000000,,,
7.0234375000,112,138.2945267335,16.0000000000,48.0000000000,,,
7.0312500000,112,169.2899743444,16.0000000000,48.0000000000,,,
7.0390625000,112,209.3589761565,16.0000000000,48.0000000000,,,
7.0468750000,112,246.5025667007,16.0000000000,48.0000000000,,,
7.0546875000,112,313.1355676629,16.0000000000,48.0000000000,,,
7.0625000000,113,387.9156828973,16.0000000000,48.0000000000,,,
7.0703125000,113,440.6246059827,16.0000000000,48.0000000000,,,
7.0781250000,113,482.0763388589,16.0000000000,48.0000000000,,,
7.0859375000,113,525.0312897520,16.0000000000,48.0000000000,,,
7.0937500000,113,524.8591395472,16.0000000000,48.0000000000,,,
7.1015625000,113,447.4368204833,16.0000000000,48.0000000000,,,
7.1093750000,113,310.6852743117,16.0000000000,48.0000000000,,,
7.1171875000,113,165.4719018668,16.0000000000,48.0000000000,,,
7.1250000000,114,68.9395907053,16.0000000000,48.0000000000,,,
7.1328125000,114,-20.9323589104,16.0000000000,48.0000000000,,,
7.1406250000,114,-140.8985768937,16.0000000000,48.0000000000,,,
7.1484375000,114,-224.6457136358,16.0000000000,48.0000000000,,,
7.1562500000,114,-267.0886191938,16.0000000000,48.0000000000,,,
7.1640625000,114,-303.8965597306,16.0000000000,48.0000000000,,,
7.1718750000,114,-326.4626356981,16.0000000000,48.0000000000,,,
7.1796875000,114,-313.7940348439,16.0000000000,48.0000000000,,,
7.1875000000,115,-262.9216075535,16.0000000000,48.0000000000,,,
7.1953125000,115,-229.7790812710,16.0000000000,48.0000000000,,,
7.2031250000,115,-227.2915518061,16.0000000000,48.0000000000,,,
7.2109375000,115,-212.5196846735,16.0000000000,48.1191419699,,,
7.2187500000,115,-186.4890206978,16.0000000000,52.3162649544,,,
7.2265625000,115,-171.9691432985,16.0000000000,61.3453864452,,,
7.2343750000,115,-153.7466748756,16.0000000000,65.7391878318,,,
7.2421875000,115,-127.3566007608,16.0000000000,64.7790076983,,,
7.2500000000,116,-83.9214479790,16.0000000000,63.5482940945,,,
7.2578125000,116,-70.1101445966,16.0000000000,63.7149430400,,,
7.2656250000,116,-84.4357098406,16.0000000000,64.1082522376,,,
7.2734375000,116,-82.0869005725,16.0000000000,64.1015676630,,,
7.2812500000,116,-74.0388102455,16.0000000000,63.9791207731,,,
7.2890625000,116,-58.4300312680,16.0000000000,63.9662846612,,,
7.2968750000,116,-26.5270814822,16.0000000000,64.0023499285,,,
7.3046875000,116,0.2936282811,16.0000000000,64.0106400489,,,
7.3125000000,117,-18.4276414704,16.0000000000,64.0005586653,,,
7.3203125000,117,-30.3946094436,16.0000000000,63.9967979099,,,
7.3281250000,117,16.4901344775,16.0000000000,63.9994427396,,,
7.3359375000,117,68.2056894606,16.0000000000,64.0009167746,,,
7.3437500000,117,76.2371149670,16.0000000000,64.0002816251,,,
7.3515625000,117,55.8223200831,16.0000000000,63.9997522250,,,
7.3593750000,117,41.0448411829,16.0000000000,63.9998836302,,,
7.3671875000,117,61.5972452723,16.0000000000,64.0000621182,,,
7.3750000000,118,64.5975266900,16.0000000000,64.0000432363,,,
7.3828125000,118,47.4662287098,16.0000000000,63.9999861201,,,
7.3906250000,118,52.8016851226,16.0000000000,63.9999850437,,,
7.3984375000,118,71.2548513313,16.0000000000,64.0000024637,,,
7.4062500000,118,85.7671567672,16.0000000000,64.0000048922,,,
7.4140625000,118,89.0096653501,16.0000000000,63.9999998321,,,
7.4218750000,118,82.2215057327,16.0000000000,63.9999984766,,,
7.4296875000,118,71.4644172166,16.0000000000,63.9999998681,,,
7.4375000000,119,56.5069358190,16.0000000000,64.0000004522,,,
7.4453125000,119,49.6628586239,16.0000000000,64.0000000950,,,
7.4531250000,119,58.9950034512,16.0000000000,63.9999998725,,,
7.4609375000,119,68.8698846877,16.0000000000,63.9999999555,,,
7.4687500000,119,63.6796420133,16.0000000000,64.0000000338,,,
7.4765625000,119,65.6115433051,16.0000000000,64.0000000178,,,
7.4843750000,119,72.9772580213,16.0000000000,63.9999999917,,,
7.4921875000,119,79.5534370845,16.0000000000,63.9999999936,,,
7.5000000000,120,100.9076819433,16.0000000000,64.0000000018,,,
7.5078125000,120,133.1487797634,16.0000000000,64.0000000022,,,
7.5156250000,120,136.3936468142,16.0000000000,63.9999999997,,,
7.5234375000,120,127.3887949382,16.0000000000,63.9999999993,,,
7.5312500000,120,115.4842016641,16.0000000000,64.0000000000,,,
7.5390625000,120,120.3707105432,16.0000000000,64.0000000002,,,
7.5468750000,120,116.2453336954,16.0000000000,64.0000000000,,,
7.5546875000,120,90.0662217542,16.0000000000,63.9999999999,,,
7.5625000000,121,92.0320497486,16.0000000000,64.0000000000,,,
7.5703125000,121,125.5049255539,16.0000000000,64.0000000000,,,
7.5781250000,121,123.0021135584,16.0000000000,64.0000000000,,,
7.5859375000,121,96.5570994321,16.0000000000,64.0000000000,,,
7.5937500000,121,79.7230649620,16.0000000000,64.0000000000,,,
7.6015625000,121,87.9799660395,16.0000000000,64.0000000000,,,
7.6093750000,121,92.4252055710,16.0000000000,64.0000000000,,,
7.6171875000,121,83.3962958232,16.0000000000,64.0000000000,,,
7.6250000000,122,65.6094766178,16.0000000000,64.0000000000,,,
7.6328125000,122,37.6889616879,16.0000000000,64.0000000000,,,
7.6406250000,122,28.7466564195,16.0000000000,64.0000000000,,,
7.6484375000,122,41.6366197968,16.0000000000,64.0000000000,,,
7.6562500000,122,34.1171091614,16.0000000000,64.0000000000,,,
7.6640625000,122,8.7773556525,16.0000000000,64.0000000000,,,
7.6718750000,122,14.7993976547,16.0000000000,64.0000000000,,,
7.6796875000,122,29.4055014630,16.0000000000,64.0000000000,,,
7.6875000000,123,43.8484415735,16.0000000000,64.0000000000,,,
7.6953125000,123,46.3592332802,16.0000000000,64.0000000000,,,
7.7031250000,123,44.9483244774,16.0000000000,64.0000000000,,,
7.7109375000,123,42.7135522756,16.0000000000,64.0000000000,,,
7.7187500000,123,54.4207697817,16.0000000000,64.0000000000,,,
7.7265625000,123,82.3688465219,16.0000000000,64.0000000000,,,
7.7343750000,123,77.9890652659,16.0000000000,64.0000000000,,,
7.7421875000,123,57.2105757155,16.0000000000,64.0000000000,,,
7.7500000000,124,45.1173726318,16.0000000000,64.0000000000,,,
7.7578125000,124,38.9198583607,16.0000000000,64.0000000000,,,
7.7656250000,124,57.7259825849,16.0000000000,64.0000000000,,,
7.7734375000,124,95.9146496582,16.0000000000,64.0000000000,,,
7.7812500000,124,97.5584120727,16.0000000000,64.0000000000,,,
7.7890625000,124,57.1659703491,16.0000000000,64.0000000000,,,
7.7968750000,124,33.9878032662,16.0000000000,64.0000000000,,,
7.8046875000,124,66.3602758745,16.0000000000,64.0000000000,,,
7.8125000000,125,76.2500600449,16.0000000000,64.0000000000,,,
7.8203125000,125,37.9750536697,16.0000000000,64.0000000000,,,
7.8281250000,125,4.6476652566,16.0000000000,64.0000000000,,,
7.8359375000,125,0.0134591536,16.0000000000,64.0000000000,,,
7.8437500000,125,-1.0288037287,16.0000000000,64.0000000000,,,
7.8515625000,125,-23.7660776901,16.0000000000,64.0000000000,,,
7.8593750000,125,-24.3232128803,16.0000000000,64.0000000000,,,
7.8671875000,125,1.4922183932,16.0000000000,64.0000000000,,,
7.8750000000,126,2.0529538838,16.0000000000,64.0000000000,,,
7.8828125000,126,-8.3005344439,16.0000000000,64.0000000000,,,
7.8906250000,126,5.8873989577,16.0000000000,64.0000000000,,,
7.8984375000,126,9.8600063580,16.0000000000,64.0000000000,,,
7.9062500000,126,-15.0666054656,16.0000000000,64.0000000000,,,
7.9140625000,126,-32.4090408572,16.0000000000,64.0000000000,,,
7.9218750000,126,-13.7835536022,16.0000000000,64.0000000000,,,
7.9296875000,126,23.3359616499,16.0000000000,64.0000000000,,,
7.9375000000,127,51.4204372779,16.0000000000,64.0000000000,,,
7.9453125000,127,51.0372327428,16.0000000000,64.0000000000,,,
7.9531250000,127,50.5529133652,16.0000000000,64.0000000000,,,
7.9609375000,127,57.4151857751,16.0000000000,64.0000000000,,,
7.9687500000,127,50.8985412572,16.0000000000,64.0000000000,,,
7.9765625000,127,44.0319489035,16.0000000000,64.0000000000,,,
7.9843750000,127,45.2401254567,16.0000000000,64.0000000000,,,
7.9921875000,127,42.3538234652,16.0000000000,64.0000000000,,,
8.0000000000,128,23.7439508020,16.0000000000,64.0000000000,,,
8.0078125000,128,2.0759571231,16.0000000000,64.0000000000,,,
8.0156250000,128,-5.5500261975,16.0000000000,64.0000000000,,,
8.0234375000,128,10.0860450756,16.0000000000,64.0000000000,,,
8.0312500000,128,32.8791788954,16.0000000000,64.0000000000,,,
8.0390625000,128,25.2722585762,16.0000000000,64.0000000000,,,
8.0468750000,128,-8.3610947004,16.0000000000,64.0000000000,,,
8.0546875000,128,-25.2931216337,16.0000000000,64.0000000000,,,
8.0625000000,129,-8.9122560702,16.0000000000,64.0000000000,,,
8.0703125000,129,15.8904621821,16.0000000000,64.0000000000,,,
8.0781250000,129,18.1403041128,16.0000000000,64.0000000000,,,
8.0859375000,129,11.0664756168,16.0000000000,64.0000000000,,,
8.0937500000,129,7.0602364922,16.0000000000,64.0000000000,,,
8.1015625000,129,29.6913557521,16.0000000000,64.0000000000,,,
8.1093750000,129,95.8909831054,16.0000000000,64.0000000000,,,
8.1171875000,129,190.5022011989,16.0000000000,64.0000000000,,,
8.1250000000,130,252.5427318991,16.0000000000,64.0000000000,,,
8.1328125000,130,279.6108382234,16.0000000000,64.0000000000,,,
8.1406250000,130,323.3077532886,16.0000000000,64.0000000000,,,
8.1484375000,130,391.3440030197,16.0000000000,64.0000000000,,,
8.1562500000,130,464.9201395146,16.0000000000,64.0000000000,,,
8.1640625000,130,541.8935653733,16.0000000000,64.0000000000,,,
8.1718750000,130,631.9308904702,16.0000000000,64.0000000000,,,
8.1796875000,130,696.8893325107,16.0000000000,64.0000000000,,,
8.1875000000,131,645.4799325282,16.0000000000,64.0000000000,,,
8.1953125000,131,438.5824394270,16.0000000000,64.0000000000,,,
8.2031250000,131,131.7252330461,16.0000000000,64.0000000000,,,
8.2109375000,131,-211.3595425093,16.0297854925,64.0148927462,,,
8.2187500000,131,-542.5774322593,17.0790662386,64.5395331193,,,
8.2265625000,131,-837.7941669509,19.3363466113,65.6681733057,,,
8.2343750000,131,-1078.5642414181,20.4347969579,66.2173984790,,,
8.2421875000,131,-1204.5372313804,20.1947519246,66.0973759623,,,
8.2500000000,132,-1097.7721394361,19.8870735236,65.9435367618,,,
8.2578125000,132,-683.5424986473,19.9287357600,65.9643678800,,,
8.2656250000,132,-71.1071419303,20.0270630594,66.0135315297,,,
8.2734375000,132,365.0986445068,20.0253919158,66.0126959579,,,
8.2812500000,132,443.9768414349,19.9947801933,65.9973900966,,,
8.2890625000,132,379.8516364255,19.9915711653,65.9957855826,,,
8.2968750000,132,289.6381435744,20.0005874821,66.0002937411,,,
8.3046875000,132,218.3751021246,20.0026600122,66.0013300061,,,
8.3125000000,133,227.1869090682,20.0001396663,66.0000698332,,,
8.3203125000,133,212.1895575893,19.9991994775,65.9995997387,,,
8.3281250000,133,89.2547965122,19.9998606849,65.9999303425,,,
8.3359375000,133,0.5604126128,20.0002291937,66.0001145968,,,
8.3437500000,133,62.8715973736,20.0000704063,66.0000352031,,,
8.3515625000,133,275.5325798712,19.9999380562,65.9999690281,,,
8.3593750000,133,536.4225381144,19.9999709076,65.9999854538,,,
8.3671875000,133,676.6251686142,20.0000155295,66.0000077648,,,
8.3750000000,134,667.3265728335,20.0000108091,66.0000054045,,,
8.3828125000,134,569.2201002761,19.9999965300,65.9999982650,,,
8.3906250000,134,346.6379775547,19.9999962609,65.9999981305,,,
8.3984375000,134,65.5362614890,20.0000006159,66.0000003080,,,
8.4062500000,134,28.2914339467,20.0000012230,66.0000006115,,,
8.4140625000,134,410.9949884347,19.9999999580,65.9999999790,,,
8.4218750000,134,948.1399873326,19.9999996192,65.9999998096,,,
8.4296875000,134,1180.8643816641,19.9999999670,65.9999999835,,,
8.4375000000,135,1035.9042815633,20.0000001130,66.0000000565,,,
8.4453125000,135,767.0989894114,20.0000000237,66.0000000119,,,
8.4531250000,135,606.2136257745,19.9999999681,65.9999999841,,,
8.4609375000,135,555.3261103826,19.9999999889,65.9999999944,,,
8.4687500000,135,440.6645241291,20.0000000085,66.0000000042,,,
8.4765625000,135,139.6439391794,20.0000000044,66.0000000022,,,
8.4843750000,135,-339.1130339018,19.9999999979,65.9999999990,,,
8.4921875000,135,-837.6920478661,19.9999999984,65.9999999992,,,
8.5000000000,136,-1199.3394546651,20.0000000004,66.0000000002,,,
8.5078125000,136,-1397.1797017792,20.0000000005,66.0000000003,,,
8.5156250000,136,-1483.0467756625,19.9999999999,66.0000000000,,,
8.5234375000,136,-1492.7028680344,19.9999999998,65.9999999999,,,
8.5312500000,136,-1427.5983123105,20.0000000000,66.0000000000,,,
8.5390625000,136,-1314.5161917439,20.0000000001,66.0000000000,,,
8.5468750000,136,-1243.1646329707,20.0000000000,66.0000000000,,,
8.5546875000,136,-1197.2234156246,20.0000000000,66.0000000000,,,
8.5625000000,137,-1146.5046364821,20.0000000000,66.0000000000,,,
8.5703125000,137,-1060.9690280753,20.0000000000,66.0000000000,,,
8.5781250000,137,-869.7115282530,20.0000000000,66.0000000000,,,
8.5859375000,137,-623.0572376289,20.0000000000,66.0000000000,,,
8.5937500000,137,-414.3281097581,20.0000000000,66.0000000000,,,
8.6015625000,137,-226.0562143676,20.0000000000,66.0000000000,,,
8.6093750000,137,-50.8244328257,20.0000000000,66.0000000000,,,
8.6171875000,137,34.2854073609,20.0000000000,66.0000000000,,,
8.6250000000,138,14.6317746469,20.0000000000,66.0000000000,,,
8.6328125000,138,-53.9833822712,20.0000000000,66.0000000000,,,
8.6406250000,138,-137.0546374515,20.0000000000,66.0000000000,,,
8.6484375000,138,-195.4038336745,20.0000000000,66.0000000000,,,
8.6562500000,138,-137.0375982228,20.0000000000,66.0000000000,,,
8.6640625000,138,34.3470539382,20.0000000000,66.0000000000,,,
8.6718750000,138,232.7689312502,20.0000000000,66.0000000000,,,
8.6796875000,138,381.8635842686,20.0000000000,66.0000000000,,,
8.6875000000,139,515.9988314058,20.0000000000,66.0000000000,,,
8.6953125000,139,651.9058199630,20.0000000000,66.0000000000,,,
8.7031250000,139,757.1450203324,20.0000000000,66.0000000000,,,
8.7109375000,139,816.7405771675,20.0000000000,66.0000000000,,,
8.7187500000,139,824.1548863524,20.0000000000,66.0000000000,,,
8.7265625000,139,779.9193999586,20.0000000000,66.0000000000,,,
8.7343750000,139,711.4510107824,20.0000000000,66.0000000000,,,
8.7421875000,139,664.7142109738,20.0000000000,66.0000000000,,,
8.7500000000,140,610.5979370246,20.0000000000,66.0000000000,,,
8.7578125000,140,540.6246000596,20.0000000000,66.0000000000,,,
8.7656250000,140,479.9927351512,20.0000000000,66.0000000000,,,
8.7734375000,140,421.0021207059,20.0000000000,66.0000000000,,,
8.7812500000,140,354.4688452337,20.0000000000,66.0000000000,,,
8.7890625000,140,275.3619003797,20.0000000000,66.0000000000,,,
8.7968750000,140,185.9291940320,20.0000000000,66.0000000000,,,
8.8046875000,140,71.6618551289,20.0000000000,66.0000000000,,,
8.8125000000,141,-35.3408291213,20.0000000000,66.0000000000,,,
8.8203125000,141,-119.0847639194,20.0000000000,66.0000000000,,,
8.8281250000,141,-187.8071041711,20.0000000000,66.0000000000,,,
8.8359375000,141,-307.3915974884,20.0000000000,66.0000000000,,,
8.8437500000,141,-473.5392638267,20.0000000000,66.0000000000,,,
8.8515625000,141,-588.8197180483,20.0000000000,66.0000000000,,,
8.8593750000,141,-590.3370499531,20.0000000000,66.0000000000,,,
8.8671875000,141,-500.2674415809,20.0000000000,66.0000000000,,,
8.8750000000,142,-362.4612633334,20.0000000000,66.0000000000,,,
8.8828125000,142,-239.2830721838,20.0000000000,66.0000000000,,,
8.8906250000,142,-145.0889989943,20.0000000000,66.0000000000,,,
8.8984375000,142,-56.1089964522,20.0000000000,66.0000000000,,,
8.9062500000,142,18.5806092925,20.0000000000,66.0000000000,,,
8.9140625000,142,98.6629173751,20.0000000000,66.0000000000,,,
8.9218750000,142,206.3069299242,20.0000000000,66.0000000000,,,
8.9296875000,142,329.6297068479,20.0000000000,66.0000000000,,,
8.9375000000,143,445.2979905245,20.0000000000,66.0000000000,,,
8.9453125000,143,583.6751854906,20.0000000000,66.0000000000,,,
8.9531250000,143,741.0220196300,20.0000000000,66.0000000000,,,
8.9609375000,143,837.0788609074,20.0000000000,66.0000000000,,,
8.9687500000,143,871.2991756491,20.0000000000,66.0000000000,,,
8.9765625000,143,965.5263202300,20.0000000000,66.0000000000,,,
8.9843750000,143,1067.8768484032,20.0000000000,66.0000000000,,,
8.9921875000,143,1090.2404143344,20.0000000000,66.0000000000,,,
9.0000000000,144,1018.2175571813,20.0000000000,66.0000000000,,,
9.0078125000,144,887.0086678771,20.0000000000,66.0000000000,,,
9.0156250000,144,757.3759459641,20.0000000000,66.0000000000,,,
9.0234375000,144,672.7114289105,20.0000000000,66.0000000000,,,
9.0312500000,144,619.2119142962,20.0000000000,66.0000000000,,,
9.0390625000,144,536.7534687235,20.0000000000,66.0000000000,,,
9.0468750000,144,432.4248852410,20.0000000000,66.0000000000,,,
9.0546875000,144,342.0966195029,20.0000000000,66.0000000000,,,
9.0625000000,145,244.8867846556,20.0000000000,66.0000000000,,,
9.0703125000,145,176.7971706191,20.0000000000,66.0000000000,,,
9.0781250000,145,156.6850087153,20.0000000000,66.0000000000,,,
9.0859375000,145,178.6360786640,20.0000000000,66.0000000000,,,
9.0937500000,145,244.6939053069,20.0000000000,66.0000000000,,,
9.1015625000,145,292.8189462142,20.0000000000,66.0000000000,,,
9.1093750000,145,298.4407535987,20.0000000000,66.0000000000,,,
9.1171875000,145,269.2573313527,20.0000000000,66.0000000000,,,
9.1250000000,146,200.7422007073,20.0000000000,66.0000000000,,,
9.1328125000,146,136.2597803126,20.0000000000,66.0000000000,,,
9.1406250000,146,153.4605544645,20.0000000000,66.0000000000,,,
9.1484375000,146,223.6823283582,20.0000000000,66.0000000000,,,
9.1562500000,146,268.4007878865,20.0000000000,66.0000000000,,,
9.1640625000,146,289.6877287561,20.0000000000,66.0000000000,,,
9.1718750000,146,320.6943670714,20.0000000000,66.0000000000,,,
9.1796875000,146,356.9971511258,20.0000000000,66.0000000000,,,
9.1875000000,147,374.8097921254,20.0000000000,66.0000000000,,,
9.1953125000,147,361.4930541926,20.0000000000,66.0000000000,,,
9.2031250000,147,325.9106017925,20.0000000000,66.0000000000,,,
9.2109375000,147,277.6150453914,20.0000000000,66.0000000000,,,
9.2187500000,147,211.2880601396,20.0000000000,66.0000000000,,,
9.2265625000,147,134.1744349903,20.0000000000,66.0000000000,,,
9.2343750000,147,32.7019200255,20.0000000000,66.0000000000,,,
9.2421875000,147,-113.2647115020,20.0000000000,66.0000000000,,,
9.2500000000,148,-356.8671940733,20.0000000000,66.0000000000,,,
9.2578125000,148,-717.2220188081,20.0000000000,66.0000000000,,,
9.2656250000,148,-1124.4898431467,20.0000000000,66.0000000000,,,
9.2734375000,148,-1505.1003866279,20.0000000000,66.0000000000,,,
9.2812500000,148,-1842.4541085994,20.0000000000,66.0000000000,,,
9.2890625000,148,-2050.9586543761,20.0000000000,66.0000000000,,,
9.2968750000,148,-2081.7578592390,20.0000000000,66.0000000000,,,
9.3046875000,148,-2047.4157143142,20.0000000000,66.0000000000,,,
9.3125000000,149,-2036.0860814479,20.0000000000,66.0000000000,,,
9.3203125000,149,-2004.4233254126,20.0000000000,66.0000000000,,,
9.3281250000,149,-1887.2016007886,20.0000000000,66.0000000000,,,
9.3359375000,149,-1734.3558406232,20.0000000000,66.0000000000,,,
9.3437500000,149,-1589.5936211926,20.0000000000,66.0000000000,,,
9.3515625000,149,-1443.5036285275,20.0000000000,66.0000000000,,,
9.3593750000,149,-1292.8087158123,20.0000000000,66.0000000000,,,
9.3671875000,149,-1152.7601670783,20.0000000000,66.0000000000,,,
9.3750000000,150,-1029.5262526838,20.0000000000,66.0000000000,,,
9.3828125000,150,-894.7233989010,20.0000000000,66.0000000000,,,
9.3906250000,150,-729.0221124522,20.0000000000,66.0000000000,,,
9.3984375000,150,-530.5683661350,20.0000000000,66.0000000000,,,
9.4062500000,150,-327.6368859589,20.0000000000,66.0000000000,,,
9.4140625000,150,-116.3589522789,20.0000000000,66.0000000000,,,
9.4218750000,150,154.3156049809,20.0000000000,66.0000000000,,,
9.4296875000,150,504.7160012593,20.0000000000,66.0000000000,,,
9.4375000000,151,825.9730372444,20.0000000000,66.0000000000,,,
9.4453125000,151,1103.0230618777,20.0000000000,66.0000000000,,,
9.4531250000,151,1289.4554858871,20.0000000000,66.0000000000,,,
9.4609375000,151,1378.9355643434,20.0000000000,66.0000000000,,,
9.4687500000,151,1421.5042275010,20.0000000000,66.0000000000,,,
9.4765625000,151,1419.4953420056,20.0000000000,66.0000000000,,,
9.4843750000,151,1365.0200521445,20.0000000000,66.0000000000,,,
9.4921875000,151,1282.6630782057,20.0000000000,66.0000000000,,,
9.5000000000,152,1181.2831272660,20.0000000000,66.0000000000,,,
9.5078125000,152,1041.3715892289,20.0000000000,66.0000000000,,,
9.5156250000,152,908.2364008480,20.0000000000,66.0000000000,,,
9.5234375000,152,778.3399795145,20.0000000000,66.0000000000,,,
9.5312500000,152,655.7539475218,20.0000000000,66.0000000000,,,
9.5390625000,152,516.1862176360,20.0000000000,66.0000000000,,,
9.5468750000,152,409.2775532327,20.0000000000,66.0000000000,,,
9.5546875000,152,366.5709333833,20.0000000000,66.0000000000,,,
9.5625000000,153,375.0854255040,20.0000000000,66.0000000000,,,
9.5703125000,153,412.5362438723,20.0000000000,66.0000000000,,,
9.5781250000,153,531.6534022089,20.0000000000,66.0000000000,,,
9.5859375000,153,727.0165082705,20.0000000000,66.0000000000,,,
9.5937500000,153,959.2340424913,20.0000000000,66.0000000000,,,
9.6015625000,153,1155.9036050131,20.0000000000,66.0000000000,,,
9.6093750000,153,1244.9030211027,20.0000000000,66.0000000000,,,
9.6171875000,153,1239.6036718633,20.0000000000,66.0000000000,,,
9.6250000000,154,1150.1051234506,20.0000000000,66.0000000000,,,
9.6328125000,154,1021.9005070890,20.0000000000,66.0000000000,,,
9.6406250000,154,875.6596469557,20.0000000000,66.0000000000,,,
9.6484375000,154,739.6580521801,20.0000000000,66.0000000000,,,
9.6562500000,154,621.6595662833,20.0000000000,66.0000000000,,,
9.6640625000,154,535.4227314840,20.0000000000,66.0000000000,,,
9.6718750000,154,461.1617376968,20.0000000000,66.0000000000,,,
9.6796875000,154,399.6650017223,20.0000000000,66.0000000000,,,
9.6875000000,155,351.9714461993,20.0000000000,66.0000000000,,,
9.6953125000,155,309.5976230666,20.0000000000,66.0000000000,,,
9.7031250000,155,268.4273855173,20.0000000000,66.0000000000,,,
9.7109375000,155,228.8288766271,20.0000000000,66.0000000000,,,
9.7187500000,155,170.4704849062,20.0000000000,66.0000000000,,,
9.7265625000,155,94.5587286192,20.0000000000,66.0000000000,,,
9.7343750000,155,35.3277187174,20.0000000000,66.0000000000,,,
9.7421875000,155,-20.3624729618,20.0000000000,66.0000000000,,,
9.7500000000,156,-85.5317125433,20.0000000000,66.0000000000,,,
9.7578125000,156,-130.2342850969,20.0000000000,66.0000000000,,,
9.7656250000,156,-140.8475352514,20.0000000000,66.0000000000,,,
9.7734375000,156,-154.9017367247,20.0000000000,66.0000000000,,,
9.7812500000,156,-151.3127627226,20.0000000000,66.0000000000,,,
9.7890625000,156,-164.6254583529,20.0000000000,66.0000000000,,,
9.7968750000,156,-168.2180623398,20.0000000000,66.0000000000,,,
9.8046875000,156,-147.4691214266,20.0000000000,66.0000000000,,,
9.8125000000,157,-111.4638112331,20.0000000000,66.0000000000,,,
9.8203125000,157,-46.3675920281,20.0000000000,66.0000000000,,,
9.8281250000,157,19.9193934322,20.0000000000,66.0000000000,,,
9.8359375000,157,88.1591544011,20.0000000000,66.0000000000,,,
9.8437500000,157,149.9081431882,20.0000000000,66.0000000000,,,
9.8515625000,157,183.7629417467,20.0000000000,66.0000000000,,,
9.8593750000,157,167.0209494190,20.0000000000,66.0000000000,,,
9.8671875000,157,62.0504732517,20.0000000000,66.0000000000,,,
9.8750000000,158,-153.2843360975,20.0000000000,66.0000000000,,,
9.8828125000,158,-415.3703041003,20.0000000000,66.0000000000,,,
9.8906250000,158,-723.7262583745,20.0000000000,66.0000000000,,,
9.8984375000,158,-1110.4803067811,20.0000000000,66.0000000000,,,
9.9062500000,158,-1544.8645400960,20.0000000000,66.0000000000,,,
9.9140625000,158,-1908.7492356952,20.0000000000,66.0000000000,,,
9.9218750000,158,-2074.5526325345,20.0000000000,66.0000000000,,,
9.9296875000,158,-2071.6189588565,20.0000000000,66.0000000000,,,
9.9375000000,159,-2040.2153387282,20.0000000000,66.0000000000,,,
9.9453125000,159,-2033.0279542119,20.0000000000,66.0000000000,,,
9.9531250000,159,-1955.1819861494,20.0000000000,66.0000000000,,,
9.9609375000,159,-1711.5557623586,20.0000000000,66.0000000000,,,
9.9687500000,159,-1385.0421400375,20.0000000000,66.0000000000,,,
9.9765625000,159,-1076.2017638000,20.0000000000,66.0000000000,,,
9.9843750000,159,-780.9440598533,20.0000000000,66.0000000000,,,
9.9921875000,159,-467.6957100429,20.0000000000,66.0000000000,,,
10.0000000000,160,-124.2534426837,20.0000000000,66.0000000000,,,
10.0078125000,160,279.3050296950,20.0000000000,66.0000000000,,,
10.0156250000,160,822.5080564458,20.0000000000,66.0000000000,,,
10.0234375000,160,1429.3830047956,20.0000000000,66.0000000000,,,
10.0312500000,160,1877.2937336436,20.0000000000,66.0000000000,,,
10.0390625000,160,2057.3802024405,20.0000000000,66.0000000000,,,
10.0468750000,160,2055.2434137737,20.0000000000,66.0000000000,,,
10.0546875000,160,1993.8080676708,20.0000000000,66.0000000000,,,
10.0625000000,161,1923.2430771287,20.0000000000,66.0000000000,,,
10.0703125000,161,1818.6473969800,20.0000000000,66.0000000000,,,
10.0781250000,161,1656.5065091921,20.0000000000,66.0000000000,,,
10.0859375000,161,1460.6249351605,20.0000000000,66.0000000000,,,
10.0937500000,161,1255.9836118959,20.0000000000,66.0000000000,,,
10.1015625000,161,1073.6236373998,20.0000000000,66.0000000000,,,
10.1093750000,161,914.6173400215,20.0000000000,66.0000000000,,,
10.1171875000,161,751.2338236358,20.0000000000,66.0000000000,,,
10.1250000000,162,578.6881441390,20.0000000000,66.0000000000,,,
10.1328125000,162,418.3486184749,20.0000000000,66.0000000000,,,
10.1406250000,162,262.9204389372,20.0000000000,66.0000000000,,,
10.1484375000,162,85.6513855232,20.0000000000,66.0000000000,,,
10.1562500000,162,-95.9779932024,20.0000000000,66.0000000000,,,
10.1640625000,162,-248.9902317439,20.0000000000,66.0000000000,,,
10.1718750000,162,-375.2183041486,20.0000000000,66.0000000000,,,
10.1796875000,162,-495.1312654916,20.0000000000,66.0000000000,,,
10.1875000000,163,-616.4564080636,20.0000000000,66.0000000000,,,
10.1953125000,163,-739.6998451343,20.0000000000,66.0000000000,,,
10.2031250000,163,-872.4197458365,20.0000000000,66.0000000000,,,
10.2109375000,163,-1009.0406875687,20.0000000000,66.0000000000,,,
10.2187500000,163,-1143.4851138754,20.0000000000,66.0000000000,,,
10.2265625000,163,-1263.2242529539,20.0000000000,66.0000000000,,,
10.2343750000,163,-1359.5923978157,20.0000000000,66.0000000000,,,
10.2421875000,163,-1393.8043635599,20.0000000000,66.0000000000,,,
10.2500000000,164,-1321.9109994208,20.0000000000,66.0000000000,,,
10.2578125000,164,-1154.3486471284,20.0000000000,66.0000000000,,,
10.2656250000,164,-935.1792649066,20.0000000000,66.0000000000,,,
10.2734375000,164,-695.0011175395,20.0000000000,66.0000000000,,,
10.2812500000,164,-444.6611576199,20.0000000000,66.0000000000,,,
10.2890625000,164,-210.4273887975,20.0000000000,66.0000000000,,,
10.2968750000,164,-14.2147269795,20.0000000000,66.0000000000,,,
10.3046875000,164,145.1325787922,20.0000000000,66.0000000000,,,
10.3125000000,165,295.3250210840,20.0000000000,66.0000000000,,,
10.3203125000,165,432.5492256652,20.0000000000,66.0000000000,,,
10.3281250000,165,510.7850904632,20.0000000000,66.0000000000,,,
10.3359375000,165,512.4437109090,20.0000000000,66.0000000000,,,
10.3437500000,165,477.3491548338,20.0000000000,66.0000000000,,,
10.3515625000,165,428.3847771972,20.0000000000,66.0000000000,,,
10.3593750000,165,363.2561103091,20.0000000000,66.0000000000,,,
10.3671875000,165,305.2001388792,20.0000000000,66.0000000000,,,
10.3750000000,166,251.4418092349,20.0000000000,66.0000000000,,,
10.3828125000,166,213.0290145501,20.0000000000,66.0000000000,,,
10.3906250000,166,183.3529653935,20.0000000000,66.0000000000,,,
10.3984375000,166,140.7390017051,20.0000000000,66.0000000000,,,
10.4062500000,166,102.8829849785,20.0000000000,66.0000000000,,,
10.4140625000,166,102.0193477800,20.0000000000,66.0000000000,,,
10.4218750000,166,121.0150302908,20.0000000000,66.0000000000,,,
10.4296875000,166,151.3282373754,20.0000000000,66.0000000000,,,
10.4375000000,167,193.6463699153,20.0000000000,66.0000000000,,,
10.4453125000,167,226.0998118037,20.0000000000,66.0000000000,,,
10.4531250000,167,280.9597998590,20.0000000000,66.0000000000,,,
10.4609375000,167,341.1104110462,20.0000000000,66.0000000000,,,
10.4687500000,167,368.4416078038,20.0000000000,66.0000000000,,,
10.4765625000,167,367.9621939432,20.0000000000,66.0000000000,,,
10.4843750000,167,356.3041523259,20.0000000000,66.0000000000,,,
10.4921875000,167,335.5992142888,20.0000000000,66.0000000000,,,
10.5000000000,168,325.8979508870,20.0000000000,66.0000000000,,,
10.5078125000,168,287.8566331870,20.0000000000,66.0000000000,,,
10.5156250000,168,237.3913064752,20.0000000000,66.0000000000,,,
10.5234375000,168,196.6178105785,20.0000000000,66.0000000000,,,
10.5312500000,168,202.3332618539,20.0000000000,66.0000000000,,,
10.5390625000,168,223.9963656907,20.0000000000,66.0000000000,,,
10.5468750000,168,213.2642428910,20.0000000000,66.0000000000,,,
10.5546875000,168,201.6417446619,20.0000000000,66.0000000000,,,
10.5625000000,169,202.1946703161,20.0000000000,66.0000000000,,,
10.5703125000,169,197.2698692991,20.0000000000,66.0000000000,,,
10.5781250000,169,171.5438468133,20.0000000000,66.0000000000,,,
10.5859375000,169,130.2305089314,20.0000000000,66.0000000000,,,
10.5937500000,169,96.6857462539,20.0000000000,66.0000000000,,,
10.6015625000,169,64.4557034282,20.0000000000,66.0000000000,,,
10.6093750000,169,32.0421366247,20.0000000000,66.0000000000,,,
10.6171875000,169,7.8485868450,20.0000000000,66.0000000000,,,
10.6250000000,170,6.8093800434,20.0000000000,66.0000000000,,,
10.6328125000,170,24.4636581169,20.0000000000,66.0000000000,,,
10.6406250000,170,24.2580295642,20.0000000000,66.0000000000,,,
10.6484375000,170,20.0894048877,20.0000000000,66.0000000000,,,
10.6562500000,170,38.1229226148,20.0000000000,66.0000000000,,,
10.6640625000,170,54.1105176984,20.0000000000,66.0000000000,,,
10.6718750000,170,62.7539206839,20.0000000000,66.0000000000,,,
10.6796875000,170,76.7694419118,20.0000000000,66.0000000000,,,
10.6875000000,171,94.5227422938,20.0000000000,66.0000000000,,,
10.6953125000,171,100.5372694124,20.0000000000,66.0000000000,,,
10.7031250000,171,96.6554273550,20.0000000000,66.0000000000,,,
10.7109375000,171,88.7544036154,20.0000000000,66.0000000000,,,
10.7187500000,171,68.2943149173,20.0000000000,66.0000000000,,,
10.7265625000,171,51.8341607881,20.0000000000,66.0000000000,,,
10.7343750000,171,46.1669842982,20.0000000000,66.0000000000,,,
10.7421875000,171,32.8704101776,20.0000000000,66.0000000000,,,
10.7500000000,172,18.5950502123,20.0000000000,66.0000000000,,,
10.7578125000,172,17.5670739336,20.0000000000,66.0000000000,,,
10.7656250000,172,19.1075710680,20.0000000000,66.0000000000,,,
10.7734375000,172,16.3295643156,20.0000000000,66.0000000000,,,
10.7812500000,172,20.8640976722,20.0000000000,66.0000000000,,,
10.7890625000,172,40.7850353450,20.0000000000,66.0000000000,,,
10.7968750000,172,55.4337427661,20.0000000000,66.0000000000,,,
10.8046875000,172,48.4442099137,20.0000000000,66.0000000000,,,
10.8125000000,173,31.3744513002,20.0000000000,66.0000000000,,,
10.8203125000,173,23.1835540797,20.0000000000,66.0000000000,,,
10.8281250000,173,28.3039353551,20.0000000000,66.0000000000,,,
10.8359375000,173,31.9352421944,20.0000000000,66.0000000000,,,
10.8437500000,173,24.5189938422,20.0000000000,66.0000000000,,,
10.8515625000,173,8.3324569030,20.0000000000,66.0000000000,,,
10.8593750000,173,-18.9992683426,20.0000000000,66.0000000000,,,
10.8671875000,173,-24.7505376807,20.0000000000,66.0000000000,,,
10.8750000000,174,-11.2688805044,20.0000000000,66.0000000000,,,
10.8828125000,174,5.8129812562,20.0000000000,66.0000000000,,,
10.8906250000,174,17.6189190899,20.0000000000,66.0000000000,,,
10.8984375000,174,21.9541337185,20.0000000000,66.0000000000,,,
10.9062500000,174,15.6723700362,20.0000000000,66.0000000000,,,
10.9140625000,174,2.8230084303,20.0000000000,66.0000000000,,,
10.9218750000,174,4.6258697608,20.0000000000,66.0000000000,,,
10.9296875000,174,15.7730614704,20.0000000000,66.0000000000,,,
10.9375000000,175,14.7892177574,20.0000000000,66.0000000000,,,
10.9453125000,175,17.3749502864,20.0000000000,66.0000000000,,,
10.9531250000,175,32.8426777245,20.0000000000,66.0000000000,,,
10.9609375000,175,48.2607202870,20.0000000000,66.0000000000,,,
10.9687500000,175,48.3920240989,20.0000000000,66.0000000000,,,
10.9765625000,175,37.5806226684,20.0000000000,66.0000000000,,,
10.9843750000,175,43.2601624147,20.0000000000,66.0000000000,,,
10.9921875000,175,39.2830866177,20.0000000000,66.0000000000,,,
11.0000000000,176,22.0770412583,20.0000000000,66.0000000000,,,
11.0078125000,176,21.7764949591,20.0000000000,66.0000000000,,,
11.0156250000,176,38.5275910946,20.0000000000,66.0000000000,,,
11.0234375000,176,44.4032269497,20.0000000000,66.0000000000,,,
11.0312500000,176,34.4142926359,20.0000000000,66.0000000000,,,
11.0390625000,176,33.3578771603,20.0000000000,66.0000000000,,,
11.0468750000,176,45.0650905463,20.0000000000,66.0000000000,,,
11.0546875000,176,51.7283338821,20.0000000000,66.0000000000,,,
11.0625000000,177,51.7986622117,20.0000000000,66.0000000000,,,
11.0703125000,177,60.3210431764,20.0000000000,66.0000000000,,,
11.0781250000,177,70.8546031033,20.0000000000,66.0000000000,,,
11.0859375000,177,73.7647490271,20.0000000000,66.0000000000,,,
11.0937500000,177,70.2792641999,20.0000000000,66.0000000000,,,
11.1015625000,177,58.3717172580,20.0000000000,66.0000000000,,,
11.1093750000,177,48.8703881476,20.0000000000,66.0000000000,,,
11.1171875000,177,67.9014792283,20.0000000000,66.0000000000,,,
11.1250000000,178,79.2163415879,20.0000000000,66.0000000000,,,
11.1328125000,178,61.1345636954,20.0000000000,66.0000000000,,,
11.1406250000,178,54.3252281190,20.0000000000,66.0000000000,,,
11.1484375000,178,62.4302420729,20.0000000000,66.0000000000,,,
11.1562500000,178,68.3789764812,20.0000000000,66.0000000000,,,
11.1640625000,178,64.7828442412,20.0000000000,66.0000000000,,,
11.1718750000,178,66.6317997303,20.0000000000,66.0000000000,,,
11.1796875000,178,66.5673932718,20.0000000000,66.0000000000,,,
11.1875000000,179,61.1550863505,20.0000000000,66.0000000000,,,
11.1953125000,179,51.8953321178,20.0000000000,66.0000000000,,,
11.2031250000,179,33.9641866129,20.0000000000,66.0000000000,,,
11.2109375000,179,19.1150712774,20.0000000000,66.0000000000,,,
11.2187500000,179,28.2388325807,20.0000000000,66.0000000000,,,
11.2265625000,179,52.7040515220,20.0000000000,66.0000000000,,,
11.2343750000,179,61.4204560622,20.0000000000,66.0000000000,,,
11.2421875000,179,46.4983308083,20.0000000000,66.0000000000,,,
11.2500000000,180,35.7936085103,20.0000000000,66.0000000000,,,
11.2578125000,180,36.3872593751,20.0000000000,66.0000000000,,,
11.2656250000,180,55.3146877816,20.0000000000,66.0000000000,,,
11.2734375000,180,65.7825811465,20.0000000000,66.0000000000,,,
11.2812500000,180,55.1318537085,20.0000000000,66.0000000000,,,
11.2890625000,180,40.1740720513,20.0000000000,66.0000000000,,,
11.2968750000,180,27.6875522527,20.0000000000,66.0000000000,,,
11.3046875000,180,38.3596601299,20.0000000000,66.0000000000,,,
11.3125000000,181,51.7422472892,20.0000000000,66.0000000000,,,
11.3203125000,181,56.6420392764,20.0000000000,66.0000000000,,,
11.3281250000,181,57.9412144737,20.0000000000,66.0000000000,,,
11.3359375000,181,42.9268063878,20.0000000000,66.0000000000,,,
11.3437500000,181,17.7118248511,20.0000000000,66.0000000000,,,
11.3515625000,181,-2.9429586298,20.0000000000,66.0000000000,,,
11.3593750000,181,3.4791972560,20.0000000000,66.0000000000,,,
11.3671875000,181,34.4888306173,20.0000000000,66.0000000000,,,
11.3750000000,182,49.2200508820,20.0000000000,66.0000000000,,,
11.3828125000,182,35.5139811351,20.0000000000,66.0000000000,,,
11.3906250000,182,18.6636933912,20.0000000000,66.0000000000,,,
11.3984375000,182,17.6404736072,20.0000000000,66.0000000000,,,
11.4062500000,182,35.5332658128,20.0000000000,66.0000000000,,,
11.4140625000,182,47.0188172481,20.0000000000,66.0000000000,,,
11.4218750000,182,37.4240812267,20.0000000000,66.0000000000,,,
11.4296875000,182,18.7061829036,20.0000000000,66.0000000000,,,
11.4375000000,183,20.1807971075,20.0000000000,66.0000000000,,,
11.4453125000,183,27.0151854573,20.0000000000,66.0000000000,,,
11.4531250000,183,25.4564252553,20.0000000000,66.0000000000,,,
11.4609375000,183,14.4666362230,20.0000000000,66.0000000000,,,
11.4687500000,183,-9.9843614963,20.0000000000,66.0000000000,,,
11.4765625000,183,-42.3186796997,20.0000000000,66.0000000000,,,
11.4843750000,183,-56.1990292394,20.0000000000,66.0000000000,,,
11.4921875000,183,-61.4572499274,20.0000000000,66.0000000000,,,
11.5000000000,184,-63.9677227950,20.0000000000,66.0000000000,,,
11.5078125000,184,-46.1351628913,20.0000000000,66.0000000000,,,
11.5156250000,184,-38.1791684635,20.0000000000,66.0000000000,,,
11.5234375000,184,-53.4715506686,20.0000000000,66.0000000000,,,
11.5312500000,184,-74.1417423700,20.0000000000,66.0000000000,,,
11.5390625000,184,-82.7515863783,20.0000000000,66.0000000000,,,
11.5468750000,184,-73.4833517167,20.0000000000,66.0000000000,,,
11.5546875000,184,-44.2704713882,20.0000000000,66.0000000000,,,
11.5625000000,185,-5.1726785642,20.0000000000,66.0000000000,,,
11.5703125000,185,17.2946465424,20.0000000000,66.0000000000,,,
11.5781250000,185,23.2884107453,20.0000000000,66.0000000000,,,
11.5859375000,185,37.4281789804,20.0000000000,66.0000000000,,,
11.5937500000,185,58.4762604325,20.0000000000,66.0000000000,,,
11.6015625000,185,77.4238576902,20.0000000000,66.0000000000,,,
11.6093750000,185,83.7535226935,20.0000000000,66.0000000000,,,
11.6171875000,185,85.6605890364,20.0000000000,66.0000000000,,,
11.6250000000,186,99.2457537214,20.0000000000,66.0000000000,,,
11.6328125000,186,101.2770904196,20.0000000000,66.0000000000,,,
11.6406250000,186,92.3721969950,20.0000000000,66.0000000000,,,
11.6484375000,186,87.1380403835,20.0000000000,66.0000000000,,,
11.6562500000,186,91.1483157050,20.0000000000,66.0000000000,,,
11.6640625000,186,97.8460056492,20.0000000000,66.0000000000,,,
11.6718750000,186,106.3846579768,20.0000000000,66.0000000000,,,
11.6796875000,186,112.7964406945,20.0000000000,66.0000000000,,,
11.6875000000,187,111.8955268854,20.0000000000,66.0000000000,,,
11.6953125000,187,105.3881382981,20.0000000000,66.0000000000,,,
11.7031250000,187,102.7064073502,20.0000000000,66.0000000000,,,
11.7109375000,187,112.3455415061,20.0000000000,66.0000000000,,,
11.7187500000,187,126.4356041369,20.0000000000,66.0000000000,,,
11.7265625000,187,104.4662361930,20.0000000000,66.0000000000,,,
11.7343750000,187,64.0501599351,20.0000000000,66.0000000000,,,
11.7421875000,187,44.2599414925,20.0000000000,66.0000000000,,,
11.7500000000,188,47.0859084740,20.0000000000,66.0000000000,,,
11.7578125000,188,51.9437568065,20.0000000000,66.0000000000,,,
11.7656250000,188,42.9350007841,20.0000000000,66.0000000000,,,
11.7734375000,188,30.9682700643,20.0000000000,66.0000000000,,,
11.7812500000,188,13.2176235660,20.0000000000,66.0000000000,,,
11.7890625000,188,10.7970699137,20.0000000000,66.0000000000,,,
11.7968750000,188,27.7139372486,20.0000000000,66.0000000000,,,
11.8046875000,188,38.6668219273,20.0000000000,66.0000000000,,,
11.8125000000,189,35.7668157039,20.0000000000,66.0000000000,,,
11.8203125000,189,37.9998586852,20.0000000000,66.0000000000,,,
11.8281250000,189,40.4592688379,20.0000000000,66.0000000000,,,
11.8359375000,189,38.8656882200,20.0000000000,66.0000000000,,,
11.8437500000,189,31.3478215712,20.0000000000,66.0000000000,,,
11.8515625000,189,33.4698529952,20.0000000000,66.0000000000,,,
11.8593750000,189,46.9911493750,20.0000000000,66.0000000000,,,
11.8671875000,189,49.3878855911,20.0000000000,66.0000000000,,,
11.8750000000,190,29.0205886452,20.0000000000,66.0000000000,,,
11.8828125000,190,17.4173062348,20.0000000000,66.0000000000,,,
11.8906250000,190,37.5419279893,20.0000000000,66.0000000000,,,
11.8984375000,190,68.5397814907,20.0000000000,66.0000000000,,,
11.9062500000,190,76.2419622053,20.0000000000,66.0000000000,,,
11.9140625000,190,75.9432948664,20.0000000000,66.0000000000,,,
11.9218750000,190,75.8721486745,20.0000000000,66.0000000000,,,
11.9296875000,190,61.8346062299,20.0000000000,66.0000000000,,,
11.9375000000,191,42.4652365877,20.0000000000,66.0000000000,,,
11.9453125000,191,36.2978249599,20.0000000000,66.0000000000,,,
11.9531250000,191,55.6707603623,20.0000000000,66.0000000000,,,
11.9609375000,191,68.3025855070,20.0000000000,66.0000000000,,,
11.9687500000,191,54.9137343412,20.0000000000,66.0000000000,,,
11.9765625000,191,49.7343433654,20.0000000000,66.0000000000,,,
11.9843750000,191,60.8132361273,20.0000000000,66.0000000000,,,
11.9921875000,191,60.1039037257,20.0000000000,66.0000000000,,,
12.0000000000,192,45.7464760754,20.0000000000,66.0000000000,,,
12.0078125000,192,45.0663594176,20.0000000000,66.0000000000,,,
12.0156250000,192,44.7933713245,20.0000000000,66.0000000000,,,
12.0234375000,192,52.7981890926,20.0000000000,66.0000000000,,,
12.0312500000,192,73.4545262081,20.0000000000,66.0000000000,,,
12.0390625000,192,83.5105552400,20.0000000000,66.0000000000,,,
12.0468750000,192,79.1599219104,20.0000000000,66.0000000000,,,
12.0546875000,192,77.1326457309,20.0000000000,66.0000000000,,,
12.0625000000,193,69.0901709608,20.0000000000,66.0000000000,,,
12.0703125000,193,64.5993747577,20.0000000000,66.0000000000,,,
12.0781250000,193,46.7793502272,20.0000000000,66.0000000000,,,
12.0859375000,193,27.1501093677,20.0000000000,66.0000000000,,,
12.0937500000,193,27.6605661981,20.0000000000,66.0000000000,,,
12.1015625000,193,34.1217271245,20.0000000000,66.0000000000,,,
12.1093750000,193,30.2378925672,20.0000000000,66.0000000000,,,
12.1171875000,193,33.8939881769,20.0000000000,66.0000000000,,,
12.1250000000,194,57.9795991388,20.0000000000,66.0000000000,,,
12.1328125000,194,77.3079557615,20.0000000000,66.0000000000,,,
12.1406250000,194,66.9962171459,20.0000000000,66.0000000000,,,
12.1484375000,194,46.5510253068,20.0000000000,66.0000000000,,,
12.1562500000,194,43.5799205248,20.0000000000,66.0000000000,,,
12.1640625000,194,49.7401201491,20.0000000000,66.0000000000,,,
12.1718750000,194,54.9166637700,20.0000000000,66.0000000000,,,
12.1796875000,194,55.9259648932,20.0000000000,66.0000000000,,,
12.1875000000,195,54.5709502484,20.0000000000,66.0000000000,,,
12.1953125000,195,38.1498191962,20.0000000000,66.0000000000,,,
12.2031250000,195,10.2040487098,20.0000000000,66.0000000000,,,
12.2109375000,195,-8.0675618217,20.0297854925,65.8808580301,,,
12.2187500000,195,11.6117745093,21.0790662386,61.6837350456,,,
12.2265625000,195,34.9492412763,23.3363466113,52.6546135548,,,
12.2343750000,195,27.2969199287,24.4347969579,48.2608121682,,,
12.2421875000,195,23.9482645224,24.1947519246,49.2209923017,,,
12.2500000000,196,21.3889855999,23.8870735236,50.4517059055,,,
12.2578125000,196,18.6568762440,23.9287357600,50.2850569600,,,
12.2656250000,196,30.0076968125,24.0270630594,49.8917477624,,,
12.2734375000,196,41.5969329732,24.0253919158,49.8984323370,,,
12.2812500000,196,22.7443564107,23.9947801933,50.0208792269,,,
12.2890625000,196,11.7882496610,23.9915711653,50.0337153388,,,
12.2968750000,196,23.2351049988,24.0005874821,49.9976500715,,,
12.3046875000,196,31.9820888035,24.0026600122,49.9893599511,,,
12.3125000000,197,30.4732546705,24.0001396663,49.9994413347,,,
12.3203125000,197,29.5905955942,23.9991994775,50.0032020901,,,
12.3281250000,197,48.9501912756,23.9998606849,50.0005572604,,,
12.3359375000,197,69.0277644369,24.0002291937,49.9990832254,,,
12.3437500000,197,60.2907827069,24.0000704063,49.9997183749,,,
12.3515625000,197,39.6397289074,23.9999380562,50.0002477750,,,
12.3593750000,197,34.7096724714,23.9999709076,50.0001163698,,,
12.3671875000,197,46.1195088788,24.0000155295,49.9999378818,,,
12.3750000000,198,52.2303838929,24.0000108091,49.9999567637,,,
12.3828125000,198,52.5814902631,23.9999965300,50.0000138799,,,
12.3906250000,198,40.1918476735,23.9999962609,50.0000149563,,,
12.3984375000,198,14.7888474985,24.0000006159,49.9999975363,,,
12.4062500000,198,10.6540740270,24.0000012230,49.9999951078,,,
12.4140625000,198,20.3504722499,23.9999999580,50.0000001679,,,
12.4218750000,198,26.1602150509,23.9999996192,50.0000015234,,,
12.4296875000,198,30.0500647362,23.9999999670,50.0000001319,,,
12.4375000000,199,25.9017928103,24.0000001130,49.9999995478,,,
12.4453125000,199,8.0628691012,24.0000000237,49.9999999050,,,
12.4531250000,199,-7.2322358865,23.9999999681,50.0000001275,,,
12.4609375000,199,-12.1805667139,23.9999999889,50.0000000445,,,
12.4687500000,199,-18.8039482905,24.0000000085,49.9999999662,,,
12.4765625000,199,-15.6199582507,24.0000000044,49.9999999822,,,
12.4843750000,199,-0.6041970517,23.9999999979,50.0000000083,,,
12.4921875000,199,19.8694113659,23.9999999984,50.0000000064,,,
12.5000000000,200,38.6517072022,24.0000000004,49.9999999982,,,
12.5078125000,200,52.4644754889,24.0000000005,49.9999999978,,,
12.5156250000,200,57.7235780047,23.9999999999,50.0000000003,,,
12.5234375000,200,62.5403783898,23.9999999998,50.0000000007,,,
12.5312500000,200,66.5889110558,24.0000000000,50.0000000000,,,
12.5390625000,200,62.3492421814,24.0000000001,49.9999999998,,,
12.5468750000,200,45.2639109786,24.0000000000,50.0000000000,,,
12.5546875000,200,28.1499807531,24.0000000000,50.0000000001,,,
12.5625000000,201,16.7298354236,24.0000000000,50.0000000000,,,
12.5703125000,201,31.2307889052,24.0000000000,50.0000000000,,,
12.5781250000,201,58.1577454311,24.0000000000,50.0000000000,,,
12.5859375000,201,71.0749856525,24.0000000000,50.0000000000,,,
12.5937500000,201,64.1262574868,24.0000000000,50.0000000000,,,
12.6015625000,201,45.1209024371,24.0000000000,50.0000000000,,,
12.6093750000,201,23.9314801507,24.0000000000,50.0000000000,,,
12.6171875000,201,-0.2794738308,24.0000000000,50.0000000000,,,
12.6250000000,202,20.9753244251,24.0000000000,50.0000000000,,,
12.6328125000,202,59.6604198572,24.0000000000,50.0000000000,,,
12.6406250000,202,72.7610441005,24.0000000000,50.0000000000,,,
12.6484375000,202,75.7302130275,24.0000000000,50.0000000000,,,
12.6562500000,202,69.6726883009,24.0000000000,50.0000000000,,,
12.6640625000,202,58.8412214001,24.0000000000,50.0000000000,,,
12.6718750000,202,41.9654609286,24.0000000000,50.0000000000,,,
12.6796875000,202,23.9273627557,24.0000000000,50.0000000000,,,
12.6875000000,203,15.8546374327,24.0000000000,50.0000000000,,,
12.6953125000,203,13.4396763214,24.0000000000,50.0000000000,,,
12.7031250000,203,20.7141695251,24.0000000000,50.0000000000,,,
12.7109375000,203,32.2782127819,24.0000000000,50.0000000000,,,
12.7187500000,203,50.0394441474,24.0000000000,50.0000000000,,,
12.7265625000,203,70.4351972022,24.0000000000,50.0000000000,,,
12.7343750000,203,62.8377858266,24.0000000000,50.0000000000,,,
12.7421875000,203,43.1909610304,24.0000000000,50.0000000000,,,
12.7500000000,204,39.5312906543,24.0000000000,50.0000000000,,,
12.7578125000,204,45.7579484742,24.0000000000,50.0000000000,,,
12.7656250000,204,49.3628988745,24.0000000000,50.0000000000,,,
12.7734375000,204,53.2982558208,24.0000000000,50.0000000000,,,
12.7812500000,204,58.9443400041,24.0000000000,50.0000000000,,,
12.7890625000,204,65.8260308458,24.0000000000,50.0000000000,,,
12.7968750000,204,60.3989328806,24.0000000000,50.0000000000,,,
12.8046875000,204,47.7214049634,24.0000000000,50.0000000000,,,
12.8125000000,205,36.2801780029,24.0000000000,50.0000000000,,,
12.8203125000,205,35.5329570663,24.0000000000,50.0000000000,,,
12.8281250000,205,50.0923832029,24.0000000000,50.0000000000,,,
12.8359375000,205,60.0095257475,24.0000000000,50.0000000000,,,
12.8437500000,205,53.6210953367,24.0000000000,50.0000000000,,,
12.8515625000,205,43.4265200894,24.0000000000,50.0000000000,,,
12.8593750000,205,51.3471732679,24.0000000000,50.0000000000,,,
12.8671875000,205,60.7842702074,24.0000000000,50.0000000000,,,
12.8750000000,206,44.6640585727,24.0000000000,50.0000000000,,,
12.8828125000,206,25.4801376321,24.0000000000,50.0000000000,,,
12.8906250000,206,17.5268022773,24.0000000000,50.0000000000,,,
12.8984375000,206,22.5011444002,24.0000000000,50.0000000000,,,
12.9062500000,206,32.0001929943,24.0000000000,50.0000000000,,,
12.9140625000,206,34.3988096024,24.0000000000,50.0000000000,,,
12.9218750000,206,43.5697312315,24.0000000000,50.0000000000,,,
12.9296875000,206,49.4038304313,24.0000000000,50.0000000000,,,
12.9375000000,207,44.1522109573,24.0000000000,50.0000000000,,,
12.9453125000,207,38.8444085242,24.0000000000,50.0000000000,,,
12.9531250000,207,30.0746606260,24.0000000000,50.0000000000,,,
12.9609375000,207,33.9920050234,24.0000000000,50.0000000000,,,
12.9687500000,207,51.7220225531,24.0000000000,50.0000000000,,,
12.9765625000,207,59.8044210394,24.0000000000,50.0000000000,,,
12.9843750000,207,41.6840470281,24.0000000000,50.0000000000,,,
12.9921875000,207,24.3296435465,24.0000000000,50.0000000000,,,
13.0000000000,208,7.8492923136,24.0000000000,50.0000000000,,,
13.0078125000,208,4.7478367987,24.0000000000,50.0000000000,,,
13.0156250000,208,32.9628500958,24.0000000000,50.0000000000,,,
13.0234375000,208,47.6426761691,24.0000000000,50.0000000000,,,
13.0312500000,208,37.6789881189,24.0000000000,50.0000000000,,,
13.0390625000,208,32.5023163656,24.0000000000,50.0000000000,,,
13.0468750000,208,17.6046592647,24.0000000000,50.0000000000,,,
13.0546875000,208,-1.3652942724,24.0000000000,50.0000000000,,,
13.0625000000,209,-10.5495135047,24.0000000000,50.0000000000,,,
13.0703125000,209,5.7039184096,24.0000000000,50.0000000000,,,
13.0781250000,209,26.6689729031,24.0000000000,50.0000000000,,,
13.0859375000,209,22.7663792961,24.0000000000,50.0000000000,,,
13.0937500000,209,12.6504223897,24.0000000000,50.0000000000,,,
13.1015625000,209,7.3147647816,24.0000000000,50.0000000000,,,
13.1093750000,209,19.4618291591,24.0000000000,50.0000000000,,,
13.1171875000,209,26.7019116035,24.0000000000,50.0000000000,,,
13.1250000000,210,46.5590431082,24.0000000000,50.0000000000,,,
13.1328125000,210,72.5397938419,24.0000000000,50.0000000000,,,
13.1406250000,210,75.0541586377,24.0000000000,50.0000000000,,,
13.1484375000,210,70.1646038364,24.0000000000,50.0000000000,,,
13.1562500000,210,61.3711229255,24.0000000000,50.0000000000,,,
13.1640625000,210,52.1454018151,24.0000000000,50.0000000000,,,
13.1718750000,210,52.3807090397,24.0000000000,50.0000000000,,,
13.1796875000,210,54.3258507855,24.0000000000,50.0000000000,,,
13.1875000000,211,46.6503148265,24.0000000000,50.0000000000,,,
13.1953125000,211,37.7836324836,24.0000000000,50.0000000000,,,
13.2031250000,211,28.8995930924,24.0000000000,50.0000000000,,,
13.2109375000,211,43.7125461717,24.0744637312,49.9031971494,,,
13.2187500000,211,68.1970527653,26.6976655965,46.4930347246,,,
13.2265625000,211,69.5230940967,32.3408665283,39.1568735133,,,
13.2343750000,211,42.2675809026,35.0869923948,35.5869098867,,,
13.2421875000,211,21.5688191869,34.4868798115,36.3670562451,,,
13.2500000000,212,16.0151115459,33.7176838090,37.3670110483,,,
13.2578125000,212,28.0376752165,33.8218394000,37.2316087800,,,
13.2656250000,212,45.1086284623,34.0676576485,36.9120450570,,,
13.2734375000,212,56.7712370052,34.0634797894,36.9174762738,,,
13.2812500000,212,51.2371847152,33.9869504832,37.0169643719,,,
13.2890625000,212,39.5142386137,33.9789279132,37.0273937128,,,
13.2968750000,212,35.4195566522,34.0014687053,36.9980906831,,,
13.3046875000,212,45.6494006409,34.0066500306,36.9913549603,,,
13.3125000000,213,56.3560010771,34.0003491658,36.9995460845,,,
13.3203125000,213,51.8397528251,33.9979986937,37.0026016982,,,
13.3281250000,213,49.1262353731,33.9996517123,37.0004527740,,,
13.3359375000,213,42.0786599945,34.0005729841,36.9992551206,,,
13.3437500000,213,44.9606076467,34.0001760157,36.9997711796,,,
13.3515625000,213,51.4008335758,33.9998451406,37.0002013172,,,
13.3593750000,213,35.4107818866,33.9999272689,37.0000945504,,,
13.3671875000,213,17.9362894554,34.0000388239,36.9999495290,,,
13.3750000000,214,38.9639173583,34.0000270227,36.9999648705,,,
13.3828125000,214,70.9462485871,33.9999913250,37.0000112774,,,
13.3906250000,214,64.6738169125,33.9999906523,37.0000121520,,,
13.3984375000,214,41.1116013201,34.0000015398,36.9999979982,,,
13.4062500000,214,42.8267817487,34.0000030576,36.9999960251,,,
13.4140625000,214,48.0389108580,33.9999998951,37.0000001364,,,
13.4218750000,214,39.9859647887,33.9999990479,37.0000012378,,,
13.4296875000,214,29.5794523770,33.9999999176,37.0000001071,,,
13.4375000000,215,19.9292650144,34.0000002826,36.9999996326,,,
13.4453125000,215,23.8227751335,34.0000000594,36.9999999228,,,
13.4531250000,215,26.9925846574,33.9999999203,37.0000001036,,,
13.4609375000,215,35.2727541383,33.9999999722,37.0000000362,,,
13.4687500000,215,62.9698101240,34.0000000211,36.9999999725,,,
13.4765625000,215,101.0031793697,34.0000000111,36.9999999856,,,
13.4843750000,215,138.7007639625,33.9999999948,37.0000000067,,,
13.4921875000,215,180.0450983824,33.9999999960,37.0000000052,,,
13.5000000000,216,235.8060100245,34.0000000011,36.9999999986,,,
13.5078125000,216,296.7457215722,34.0000000014,36.9999999982,,,
13.5156250000,216,327.4154774569,33.9999999998,37.0000000002,,,
13.5234375000,216,315.8566340668,33.9999999996,37.0000000006,,,
13.5312500000,216,291.5998289589,34.0000000000,37.0000000000,,,
13.5390625000,216,260.4731499481,34.0000000001,36.9999999998,,,
13.5468750000,216,210.8505490099,34.0000000000,37.0000000000,,,
13.5546875000,216,135.6594854537,34.0000000000,37.0000000001,,,
13.5625000000,217,50.7252179419,34.0000000000,37.0000000000,,,
13.5703125000,217,-22.4113136857,34.0000000000,37.0000000000,,,
13.5781250000,217,-82.1038335908,34.0000000000,37.0000000000,,,
13.5859375000,217,-129.3958562963,34.0000000000,37.0000000000,,,
13.5937500000,217,-162.8945538306,34.0000000000,37.0000000000,,,
13.6015625000,217,-186.7146348228,34.0000000000,37.0000000000,,,
13.6093750000,217,-185.1421343761,34.0000000000,37.0000000000,,,
13.6171875000,217,-179.2393317381,34.0000000000,37.0000000000,,,
13.6250000000,218,-177.0888982787,34.0000000000,37.0000000000,,,
13.6328125000,218,-148.4792331211,34.0000000000,37.0000000000,,,
13.6406250000,218,-125.0719767496,34.0000000000,37.0000000000,,,
13.6484375000,218,-130.6817389322,34.0000000000,37.0000000000,,,
13.6562500000,218,-124.5163326613,34.0000000000,37.0000000000,,,
13.6640625000,218,-98.7147407981,34.0000000000,37.0000000000,,,
13.6718750000,218,-82.3502327472,34.0000000000,37.0000000000,,,
13.6796875000,218,-88.7410340530,34.0000000000,37.0000000000,,,
13.6875000000,219,-86.6599422526,34.0000000000,37.0000000000,,,
13.6953125000,219,-66.5062149211,34.0000000000,37.0000000000,,,
13.7031250000,219,-60.3548116059,34.0000000000,37.0000000000,,,
13.7109375000,219,-46.2557896504,34.0000000000,37.0000000000,,,
13.7187500000,219,-16.2522658897,34.0000000000,37.0000000000,,,
13.7265625000,219,10.7773948339,34.0000000000,37.0000000000,,,
13.7343750000,219,15.9226955599,34.0000000000,37.0000000000,,,
13.7421875000,219,13.3224062976,34.0000000000,37.0000000000,,,
13.7500000000,220,35.1876931887,34.0000000000,37.0000000000,,,
13.7578125000,220,65.8324054822,34.0000000000,37.0000000000,,,
13.7656250000,220,72.9274462674,34.0000000000,37.0000000000,,,
13.7734375000,220,75.7823078119,34.0000000000,37.0000000000,,,
13.7812500000,220,80.6400539031,34.0000000000,37.0000000000,,,
13.7890625000,220,79.2435607083,34.0000000000,37.0000000000,,,
13.7968750000,220,67.0115383989,34.0000000000,37.0000000000,,,
13.8046875000,220,60.8760924197,34.0000000000,37.0000000000,,,
13.8125000000,221,87.5050232391,34.0000000000,37.0000000000,,,
13.8203125000,221,108.8958121057,34.0000000000,37.0000000000,,,
13.8281250000,221,90.8186295666,34.0000000000,37.0000000000,,,
13.8359375000,221,55.2185598035,34.0000000000,37.0000000000,,,
13.8437500000,221,46.3073570718,34.0000000000,37.0000000000,,,
13.8515625000,221,53.3276745068,34.0000000000,37.0000000000,,,
13.8593750000,221,46.6493581743,34.0000000000,37.0000000000,,,
13.8671875000,221,32.8247269524,34.0000000000,37.0000000000,,,
13.8750000000,222,29.5337673249,34.0000000000,37.0000000000,,,
13.8828125000,222,44.5326925804,34.0000000000,37.0000000000,,,
13.8906250000,222,47.6236400986,34.0000000000,37.0000000000,,,
13.8984375000,222,42.3561975716,34.0000000000,37.0000000000,,,
13.9062500000,222,37.4186508183,34.0000000000,37.0000000000,,,
13.9140625000,222,29.1868998728,34.0000000000,37.0000000000,,,
13.9218750000,222,44.7877932960,34.0000000000,37.0000000000,,,
13.9296875000,222,75.8303772495,34.0000000000,37.0000000000,,,
13.9375000000,223,83.4802349888,34.0000000000,37.0000000000,,,
13.9453125000,223,72.1874940478,34.0000000000,37.0000000000,,,
13.9531250000,223,65.0677856130,34.0000000000,37.0000000000,,,
13.9609375000,223,77.2277088130,34.0000000000,37.0000000000,,,
13.9687500000,223,83.1877262499,34.0000000000,37.0000000000,,,
13.9765625000,223,77.8615509664,34.0000000000,37.0000000000,,,
13.9843750000,223,94.6384234268,34.0000000000,37.0000000000,,,
13.9921875000,223,99.8603657647,34.0000000000,37.0000000000,,,
14.0000000000,224,64.8953986743,34.0000000000,37.0000000000,,,
14.0078125000,224,20.4863140041,34.0000000000,37.0000000000,,,
14.0156250000,224,13.7276263880,34.0000000000,37.0000000000,,,
14.0234375000,224,47.1393820143,34.0000000000,37.0000000000,,,
14.0312500000,224,68.0497081568,34.0000000000,37.0000000000,,,
14.0390625000,224,54.3288350921,34.0000000000,37.0000000000,,,
14.0468750000,224,38.9806742530,34.0000000000,37.0000000000,,,
14.0546875000,224,33.4377037692,34.0000000000,37.0000000000,,,
14.0625000000,225,43.3979508717,34.0000000000,37.0000000000,,,
14.0703125000,225,50.2544899867,34.0000000000,37.0000000000,,,
14.0781250000,225,34.6520044491,34.0000000000,37.0000000000,,,
14.0859375000,225,27.6439335356,34.0000000000,37.0000000000,,,
14.0937500000,225,55.9420935348,34.0000000000,37.0000000000,,,
14.1015625000,225,79.6980081295,34.0000000000,37.0000000000,,,
14.1093750000,225,72.7829987237,34.0000000000,37.0000000000,,,
14.1171875000,225,56.3490864017,34.0000000000,37.0000000000,,,
14.1250000000,226,31.8298068737,34.0000000000,37.0000000000,,,
14.1328125000,226,9.8829463738,34.0000000000,37.0000000000,,,
14.1406250000,226,18.8378479655,34.0000000000,37.0000000000,,,
14.1484375000,226,50.9097945048,34.0000000000,37.0000000000,,,
14.1562500000,226,58.2388070967,34.0000000000,37.0000000000,,,
14.1640625000,226,41.7153585136,34.0000000000,37.0000000000,,,
14.1718750000,226,34.9612663559,34.0000000000,37.0000000000,,,
14.1796875000,226,46.8076505199,34.0000000000,37.0000000000,,,
14.1875000000,227,47.2574814555,34.0000000000,37.0000000000,,,
14.1953125000,227,31.1517535890,34.0000000000,37.0000000000,,,
14.2031250000,227,17.0649506784,34.0000000000,37.0000000000,,,
14.2109375000,227,20.2344123744,34.1638202087,36.8510725376,,,
14.2187500000,227,34.2461789010,39.9348643122,31.6046688070,,,
14.2265625000,227,34.9876015068,52.3499063622,20.3182669435,,,
14.2343750000,227,25.0194028285,58.3913832687,14.8260152103,,,
14.2421875000,227,21.7868535734,57.0711355852,16.0262403771,,,
14.2500000000,228,17.7094265076,55.3789043799,17.5646323819,,,
14.2578125000,228,4.1891129611,55.6080466799,17.3563212001,,,
14.2656250000,228,5.3543050880,56.1488468267,16.8646847030,,,
14.2734375000,228,8.6631381274,56.1396555366,16.8730404212,,,
14.2812500000,228,14.0059780225,55.9712910630,17.0260990336,,,
14.2890625000,228,31.5477139772,55.9536414091,17.0421441735,,,
14.2968750000,228,52.2413538644,56.0032311517,16.9970625893,,,
14.3046875000,228,57.6589836154,56.0146300672,16.9866999389,,,
14.3125000000,229,57.0158346618,56.0007681647,16.9993016684,,,
14.3203125000,229,58.0066531254,55.9955971262,17.0040026126,,,
14.3281250000,229,70.0710752859,55.9992337670,17.0006965754,,,
14.3359375000,229,80.4053327730,56.0012605651,16.9988540317,,,
14.3437500000,229,80.3829994096,56.0003872345,16.9996479686,,,
14.3515625000,229,64.9038356652,55.9996593093,17.0003097188,,,
14.3593750000,229,49.0190243741,55.9998399916,17.0001454622,,,
14.3671875000,229,34.1133758668,56.0000854125,16.9999223523,,,
14.3750000000,230,29.7431948238,56.0000594498,16.9999459547,,,
14.3828125000,230,34.9921510772,55.9999809151,17.0000173499,,,
14.3906250000,230,33.9243621997,55.9999794352,17.0000186953,,,
14.3984375000,230,36.6167730634,56.0000033876,16.9999969204,,,
14.4062500000,230,46.2338602573,56.0000067267,16.9999938848,,,
14.4140625000,230,24.4326025618,55.9999997692,17.0000002099,,,
14.4218750000,230,-7.6084886574,55.9999979053,17.0000019042,,,
14.4296875000,230,9.2476678496,55.9999998187,17.0000001648,,,
14.4375000000,231,38.7856796617,56.0000006218,16.9999994348,,,
14.4453125000,231,35.5267900187,56.0000001306,16.9999998813,,,
14.4531250000,231,28.9999905319,55.9999998247,17.0000001594,,,
14.4609375000,231,35.0096231106,55.9999999388,17.0000000557,,,
14.4687500000,231,25.3253997746,56.0000000465,16.9999999577,,,
14.4765625000,231,-2.2832509332,56.0000000244,16.9999999778,,,
14.4843750000,231,-14.1861692797,55.9999999887,17.0000000103,,,
14.4921875000,231,1.3316199838,55.9999999911,17.0000000081,,,
14.5000000000,232,32.4439527060,56.0000000024,16.9999999978,,,
14.5078125000,232,41.4531343999,56.0000000030,16.9999999973,,,
14.5156250000,232,39.2904141796,55.9999999996,17.0000000003,,,
14.5234375000,232,34.2514394960,55.9999999990,17.0000000009,,,
14.5312500000,232,31.2828418453,56.0000000000,17.0000000000,,,
14.5390625000,232,48.9792158088,56.0000000003,16.9999999997,,,
14.5468750000,232,76.4755623353,56.0000000000,17.0000000000,,,
14.5546875000,232,77.6093374134,55.9999999999,17.0000000001,,,
14.5625000000,233,68.4609682108,56.0000000000,17.0000000000,,,
14.5703125000,233,68.5258146186,56.0000000000,17.0000000000,,,
14.5781250000,233,64.0581182732,56.0000000000,17.0000000000,,,
14.5859375000,233,55.9848488656,56.0000000000,17.0000000000,,,
14.5937500000,233,52.1657497205,56.0000000000,17.0000000000,,,
14.6015625000,233,51.2823750698,56.0000000000,17.0000000000,,,
14.6093750000,233,35.7657390280,56.0000000000,17.0000000000,,,
14.6171875000,233,14.0000181055,56.0000000000,17.0000000000,,,
14.6250000000,234,10.2511705111,56.0000000000,17.0000000000,,,
14.6328125000,234,22.7824671579,56.0000000000,17.0000000000,,,
14.6406250000,234,43.8280217477,56.0000000000,17.0000000000,,,
14.6484375000,234,54.9250446870,56.0000000000,17.0000000000,,,
14.6562500000,234,55.4191627669,56.0000000000,17.0000000000,,,
14.6640625000,234,53.9174443646,56.0000000000,17.0000000000,,,
14.6718750000,234,56.2181381846,56.0000000000,17.0000000000,,,
14.6796875000,234,55.8991717568,56.0000000000,17.0000000000,,,
14.6875000000,235,41.8778978230,56.0000000000,17.0000000000,,,
14.6953125000,235,24.7635472345,56.0000000000,17.0000000000,,,
14.7031250000,235,17.4161501074,56.0000000000,17.0000000000,,,
14.7109375000,235,22.9989894385,56.0000000000,17.0000000000,,,
14.7187500000,235,35.2737458988,56.0000000000,17.0000000000,,,
14.7265625000,235,44.1033212766,56.0000000000,17.0000000000,,,
14.7343750000,235,42.9762235184,56.0000000000,17.0000000000,,,
14.7421875000,235,33.8969407811,56.0000000000,17.0000000000,,,
14.7500000000,236,35.9435816093,56.0000000000,17.0000000000,,,
14.7578125000,236,45.9739666853,56.0000000000,17.0000000000,,,
14.7656250000,236,55.6750748401,56.0000000000,17.0000000000,,,
14.7734375000,236,47.7009262516,56.0000000000,17.0000000000,,,
14.7812500000,236,29.5844886819,56.0000000000,17.0000000000,,,
14.7890625000,236,23.4420302907,56.0000000000,17.0000000000,,,
14.7968750000,236,28.3839557038,56.0000000000,17.0000000000,,,
14.8046875000,236,32.1558039232,56.0000000000,17.0000000000,,,
14.8125000000,237,39.5843848304,56.0000000000,17.0000000000,,,
14.8203125000,237,56.9538552333,56.0000000000,17.0000000000,,,
14.8281250000,237,66.9728156199,56.0000000000,17.0000000000,,,
14.8359375000,237,66.1406163811,56.0000000000,17.0000000000,,,
14.8437500000,237,68.2012759486,56.0000000000,17.0000000000,,,
14.8515625000,237,54.6673644109,56.0000000000,17.0000000000,,,
14.8593750000,237,26.6566113500,56.0000000000,17.0000000000,,,
14.8671875000,237,18.4014808559,56.0000000000,17.0000000000,,,
14.8750000000,238,28.3810126552,56.0000000000,17.0000000000,,,
14.8828125000,238,38.9611485891,56.0000000000,17.0000000000,,,
14.8906250000,238,38.5638163866,56.0000000000,17.0000000000,,,
14.8984375000,238,32.4848219553,56.0000000000,17.0000000000,,,
14.9062500000,238,40.8777519059,56.0000000000,17.0000000000,,,
14.9140625000,238,79.2904809595,56.0000000000,17.0000000000,,,
14.9218750000,238,106.7667087393,56.0000000000,17.0000000000,,,
14.9296875000,238,111.1899072460,56.0000000000,17.0000000000,,,
14.9375000000,239,107.4361516359,56.0000000000,17.0000000000,,,
14.9453125000,239,95.8412979615,56.0000000000,17.0000000000,,,
14.9531250000,239,63.9588785264,56.0000000000,17.0000000000,,,
14.9609375000,239,40.6161504296,56.0000000000,17.0000000000,,,
14.9687500000,239,29.7407570036,56.0000000000,17.0000000000,,,
14.9765625000,239,14.8766803031,56.0000000000,17.0000000000,,,
14.9843750000,239,3.1384373239,56.0000000000,17.0000000000,,,
14.9921875000,239,2.1484972698,56.0000000000,17.0000000000,,,
15.0000000000,240,13.9167420628,56.0000000000,17.0000000000,,,
15.0078125000,240,7.9186402308,56.0000000000,17.0000000000,,,
15.0156250000,240,-8.5495692849,56.0000000000,17.0000000000,,,
15.0234375000,240,2.0806475605,56.0000000000,17.0000000000,,,
15.0312500000,240,31.9049457051,56.0000000000,17.0000000000,,,
15.0390625000,240,46.9462840255,56.0000000000,17.0000000000,,,
15.0468750000,240,73.5542812231,56.0000000000,17.0000000000,,,
15.0546875000,240,126.8735166662,56.0000000000,17.0000000000,,,
