Time:250Hz,Epoch,Electrode,Event Id,Event Date,Event Duration
0,0,-13.41083955,,,
0.004,0,20.41148495,,,
0.008,0,44.5956832,,,
0.012,0,46.55255528,,,
0.016,0,65.19346141,,,
0.02,0,45.00824382,,,
0.024,0,2.603828062,,,
0.028,0,19.46679434,,,
0.032,1,43.29673937,,,
0.036,1,14.90246804,,,
0.04,1,-34.00410436,,,
0.044,1,-32.79539682,,,
0.048,1,-37.56121593,,,
0.052,1,-94.33698936,,,
0.056,1,-85.45256607,,,
0.06,1,-35.49206204,,,
0.064,2,-41.0813071,,,
0.068,2,-46.82066106,,,
0.072,2,-21.95890855,,,
0.076,2,6.542412659,,,
0.08,2,34.51538437,,,
0.084,2,56.31599472,,,
0.088,2,50.25907183,,,
0.092,2,-17.35124976,,,
0.096,3,-64.53092709,,,
0.1,3,-19.43257476,,,
0.104,3,36.47521421,,,
0.108,3,45.59457485,,,
0.112,3,46.17105997,,,
0.116,3,67.91097333,,,
0.12,3,61.30239457,,,
0.124,3,40.76412421,,,
0.128,4,65.38210843,,,
0.132,4,65.27274071,,,
0.136,4,18.2270061,,,
0.14,4,11.82463924,,,
0.144,4,18.20206473,,,
0.148,4,-29.36701591,,,
0.152,4,-54.63796165,,,
0.156,4,-0.608788594,,,
0.16,5,47.00187527,,,
0.164,5,66.98590346,,,
0.168,5,82.06533879,,,
0.172,5,59.77949529,,,
0.176,5,14.29885109,,,
0.18,5,-3.082418242,,,
0.184,5,34.13815314,,,
0.188,5,83.64150838,,,
0.192,6,86.42987777,,,
0.196,6,29.89276132,,,
0.2,6,11.29395896,,,
0.204,6,52.02654839,,,
0.208,6,47.35124318,,,
0.212,6,44.84137369,,,
0.216,6,62.10476225,,,
0.22,6,55.25104881,,,
0.224,7,62.48403317,,,
0.228,7,74.6647915,,,
0.232,7,36.12442732,,,
0.236,7,-33.02160795,,,
0.24,7,-45.32684609,,,
0.244,7,-8.783717864,,,
0.248,7,6.980688252,,,
0.252,7,41.66225911,,,
0.256,8,95.62925564,,,
0.26,8,75.3750307,,,
0.264,8,25.42405422,,,
0.268,8,4.883069218,,,
0.272,8,14.72307321,,,
0.276,8,32.99647435,,,
0.28,8,31.14565871,,,
0.284,8,45.77597808,,,
0.288,9,53.88041786,,,
0.292,9,41.20970186,,,
0.296,9,48.38290965,,,
0.3,9,48.5149803,,,
0.304,9,26.2161158,,,
0.308,9,7.726096249,,,
0.312,9,2.631574958,,,
0.316,9,-0.684345584,,,
0.32,10,2.857733993,,,
0.324,10,47.64897134,,,
0.328,10,101.4413293,,,
0.332,10,94.96131796,,,
0.336,10,56.14208579,,,
0.34,10,52.32020415,,,
0.344,10,80.23555168,,,
0.348,10,69.09864843,,,
0.352,11,28.06483635,,,
0.356,11,68.40767212,,,
0.36,11,96.763,,,
0.364,11,47.43219635,,,
0.368,11,34.34472346,,,
0.372,11,36.19903707,,,
0.376,11,15.86603927,,,
0.38,11,30.1806091,,,
0.384,12,72.62496322,,,
0.388,12,53.26822482,,,
0.392,12,0.392261557,,,
0.396,12,20.18358233,,,
0.4,12,69.96836788,,,
0.404,12,85.69465656,,,
0.408,12,42.31462724,,,
0.412,12,-15.78024462,,,
0.416,13,37.67358812,,,
0.42,13,98.15271942,,,
0.424,13,71.27749511,,,
0.428,13,47.22005183,,,
0.432,13,4.427790378,,,
0.436,13,-56.35305738,,,
0.44,13,-54.77609584,,,
0.444,13,-13.21648039,,,
0.448,14,37.28401742,,,
0.452,14,83.25236378,,,
0.456,14,89.26052074,,,
0.46,14,65.87863835,,,
0.464,14,53.45557963,,,
0.468,14,61.18725706,,,
0.472,14,51.89582789,,,
0.476,14,26.68395296,,,
0.48,15,23.051285,,,
0.484,15,45.47376966,,,
0.488,15,62.94496888,,,
0.492,15,72.45446527,,,
0.496,15,73.88308467,,,
0.5,15,37.9731269,,,
0.504,15,-18.24552847,,,
0.508,15,-40.82153523,,,
0.512,16,-17.06394577,,,
0.516,16,42.31219933,,,
0.52,16,88.17019753,,,
0.524,16,81.62249875,,,
0.528,16,65.49920141,,,
0.532,16,39.00908558,,,
0.536,16,5.849772785,,,
0.54,16,17.64948901,,,
0.544,17,61.00307126,,,
0.548,17,30.01451371,,,
0.552,17,-30.31451987,,,
0.556,17,19.18258582,,,
0.56,17,69.6434537,,,
0.564,17,72.29567633,,,
0.568,17,82.50595388,,,
0.572,17,58.22445739,,,
0.576,18,40.01406728,,,
0.58,18,62.77290936,,,
0.584,18,65.61828959,,,
0.588,18,35.40430218,,,
0.592,18,-0.844374512,,,
0.596,18,-11.73510015,,,
0.6,18,21.060379,,,
0.604,18,47.61225167,,,
0.608,19,56.35841562,,,
0.612,19,51.53354179,,,
0.616,19,41.82255114,,,
0.62,19,51.72039182,,,
0.624,19,55.41447806,,,
0.628,19,49.67241641,,,
0.632,19,11.66273495,,,
0.636,19,-28.1728363,,,
0.64,20,5.633696654,,,
0.644,20,52.05056998,,,
0.648,20,72.47081676,,,
0.652,20,82.02379823,,,
0.656,20,57.99365841,,,
0.66,20,12.61911877,,,
0.664,20,-1.946870119,,,
0.668,20,9.088967634,,,
0.672,21,9.129979217,,,
0.676,21,46.72378293,,,
0.68,21,96.97612191,,,
0.684,21,81.45027125,,,
0.688,21,46.64361038,,,
0.692,21,43.04607522,,,
0.696,21,46.77753819,,,
0.7,21,54.82894225,,,
0.704,22,77.13434317,,,
0.708,22,83.96755235,,,
0.712,22,33.83176654,,,
0.716,22,7.015111907,,,
0.72,22,91.8698174,,,
0.724,22,134.6077201,,,
0.728,22,82.22906307,,,
0.732,22,56.35041522,,,
0.736,23,31.81503286,,,
0.74,23,-7.175627221,,,
0.744,23,3.077965107,,,
0.748,23,38.33420419,,,
0.752,23,24.77314672,,,
0.756,23,-24.42260061,,,
0.76,23,-15.43310969,,,
0.764,23,26.69495512,,,
0.768,24,18.87013052,,,
0.772,24,8.673751447,,,
0.776,24,30.49263028,,,
0.78,24,25.9757219,,,
0.784,24,11.50949722,,,
0.788,24,33.40046712,,,
0.792,24,36.81574786,,,
0.796,24,6.057364151,,,
0.8,25,0.382637814,,,
0.804,25,-4.150752159,,,
0.808,25,-30.97060485,,,
0.812,25,9.778153496,,,
0.816,25,84.86311557,,,
0.82,25,88.28381107,,,
0.824,25,63.73671706,,,
0.828,25,45.84399076,,,
0.832,26,9.888357142,,,
0.836,26,-9.797858913,,,
0.84,26,22.93708511,,,
0.844,26,45.95739643,,,
0.848,26,28.93834354,,,
0.852,26,21.5803457,,,
0.856,26,14.77207726,,,
0.86,26,10.55176828,,,
0.864,27,19.81847763,,,
0.868,27,13.02047694,,,
0.872,27,10.70356345,,,
0.876,27,22.46150009,,,
0.88,27,20.65042192,,,
0.884,27,11.69912068,,,
0.888,27,31.93317627,,,
0.892,27,62.40555416,,,
0.896,28,60.80781254,,,
0.9,28,72.762259,,,
0.904,28,74.91094723,,,
0.908,28,53.49492662,,,
0.912,28,35.59817628,,,
0.916,28,9.419576419,,,
0.92,28,10.15894214,,,
0.924,28,14.59376514,,,
0.928,29,13.93997564,,,
0.932,29,21.48193312,,,
0.936,29,13.32302549,,,
0.94,29,6.031441612,,,
0.944,29,1.465422773,,,
0.948,29,-0.623459097,,,
0.952,29,7.397835643,,,
0.956,29,17.71620377,,,
0.96,30,34.97599016,,,
0.964,30,30.9775887,,,
0.968,30,4.29530937,,,
0.972,30,-10.45627537,,,
0.976,30,-16.46298361,,,
0.98,30,-9.27992066,,,
0.984,30,11.15079036,,,
0.988,30,20.24453704,,,
0.992,31,29.38492297,,,
0.996,31,55.7221015,,,
1,31,60.57559059,,,
1.004,31,52.16829555,,,
1.008,31,64.70948437,,,
1.012,31,49.90792032,,,
1.016,31,26.48669938,,,
1.02,31,32.80860246,,,
1.024,32,27.3143971,,,
1.028,32,19.29667545,,,
1.032,32,17.26425738,,,
1.036,32,13.06335469,,,
1.04,32,17.40945022,,,
1.044,32,-8.500221703,,,
1.048,32,-38.30929229,,,
1.052,32,7.824826867,,,
1.056,33,65.30488173,,,
1.06,33,74.18296137,,,
1.064,33,45.31009768,,,
1.068,33,-16.20692675,,,
1.072,33,-43.68410272,,,
1.076,33,-33.47276234,,,
1.08,33,-17.23379364,,,
1.084,33,30.84701686,,,
1.088,34,47.97362209,,,
1.092,34,13.45752898,,,
1.096,34,29.11095264,,,
1.1,34,55.6593289,,,
1.104,34,15.36407928,,,
1.108,34,-11.65090627,,,
1.112,34,-2.340112159,,,
1.116,34,7.875179991,,,
1.12,35,24.25516403,,,
1.124,35,25.71247866,,,
1.128,35,-12.7969937,,,
1.132,35,-44.1588039,,,
1.136,35,-23.18364684,,,
1.14,35,11.70682467,,,
1.144,35,30.46133825,,,
1.148,35,27.10324164,,,
1.152,36,11.28066956,,,
1.156,36,1.142497471,,,
1.16,36,19.10641348,,,
1.164,36,53.68107404,,,
1.168,36,63.9273622,,,
1.172,36,48.1364009,,,
1.176,36,26.58417718,,,
1.18,36,9.500092139,,,
1.184,37,-2.87269793,,,
1.188,37,-7.080785154,,,
1.192,37,-10.34416871,,,
1.196,37,14.79207031,,,
1.2,37,76.89986613,,,
1.204,37,110.3759309,,,
1.208,37,115.286685,,,
1.212,37,110.8807637,,,
1.216,38,76.36803861,,,
1.22,38,21.23591742,,,
1.224,38,8.242129507,,,
1.228,38,64.65322581,,,
1.232,38,103.165734,,,
1.236,38,95.68962943,,,
1.24,38,86.68859422,,,
1.244,38,71.44819886,,,
1.248,39,26.67176036,,,
1.252,39,0.018647197,,,
1.256,39,57.35959552,,,
1.26,39,88.80705011,,,
1.264,39,62.1055389,,,
1.268,39,72.89670465,,,
1.272,39,58.00486363,,,
1.276,39,-6.588005031,,,
1.28,40,-17.54006629,,,
1.284,40,14.69257898,,,
1.288,40,35.21091364,,,
1.292,40,46.22769702,,,
1.296,40,36.13260416,,,
1.3,40,17.27892199,,,
1.304,40,17.29985828,,,
1.308,40,13.14568181,,,
1.312,41,-13.78571658,,,
1.316,41,-18.03942072,,,
1.32,41,23.18788854,,,
1.324,41,59.66397438,,,
1.328,41,65.5487079,,,
1.332,41,72.52822878,,,
1.336,41,55.54416184,,,
1.34,41,-11.37746752,,,
1.344,42,-25.64470266,,,
1.348,42,35.10068128,,,
1.352,42,59.88002513,,,
1.356,42,49.36732213,,,
1.36,42,46.52842033,,,
1.364,42,28.56100809,,,
1.368,42,10.53051834,,,
1.372,42,27.96739897,,,
1.376,43,50.23877142,,,
1.38,43,47.90543865,,,
1.384,43,43.12739263,,,
1.388,43,36.1794771,,,
1.392,43,18.57001964,,,
1.396,43,-0.797542706,,,
1.4,43,-24.17005364,,,
1.404,43,-9.047887518,,,
1.408,44,9.381373686,,,
1.412,44,3.208506089,,,
1.416,44,43.45256233,,,
1.42,44,58.47573723,,,
1.424,44,39.22190382,,,
1.428,44,64.67104096,,,
1.432,44,71.89145865,,,
1.436,44,55.13098205,,,
1.44,45,62.64561796,,,
1.444,45,64.26160367,,,
1.448,45,77.26162556,,,
1.452,45,88.84518813,,,
1.456,45,67.31061109,,,
1.46,45,71.85349626,,,
1.464,45,77.06892708,,,
1.468,45,51.37309618,,,
1.472,46,70.0356201,,,
1.476,46,93.62840669,,,
1.48,46,47.42876568,,,
1.484,46,16.9162921,,,
1.488,46,21.80729422,,,
1.492,46,31.34970321,,,
1.496,46,77.61786126,,,
1.5,46,96.53713779,,,
1.504,47,65.63693102,,,
1.508,47,56.30385478,,,
1.512,47,49.36501116,,,
1.516,47,24.57435988,,,
1.52,47,53.26396947,,,
1.524,47,80.51050855,,,
1.528,47,24.27939443,,,
1.532,47,9.406890985,,,
1.536,48,44.01580764,,,
1.54,48,42.9002976,,,
1.544,48,54.54563524,,,
1.548,48,57.84106419,,,
1.552,48,13.41335784,,,
1.556,48,-19.69719193,,,
1.56,48,-2.971553733,,,
1.564,48,16.38347091,,,
1.568,49,24.78542699,,,
1.572,49,42.62708659,,,
1.576,49,32.05257638,,,
1.58,49,3.283462518,,,
1.584,49,15.72375343,,,
1.588,49,45.87871847,,,
1.592,49,69.42232845,,,
1.596,49,76.35524704,,,
1.6,50,59.87170584,,,
1.604,50,27.05859933,,,
1.608,50,-5.554270141,,,
1.612,50,-2.636956259,,,
1.616,50,2.6317939,,,
1.62,50,-2.10901986,,,
1.624,50,12.08842318,,,
1.628,50,32.11804948,,,
1.632,51,28.24431512,,,
1.636,51,19.01809153,,,
1.64,51,28.02776026,,,
1.644,51,18.21949127,,,
1.648,51,17.28137649,,,
1.652,51,34.64514348,,,
1.656,51,26.5469606,,,
1.66,51,10.67886469,,,
1.664,52,12.24455556,,,
1.668,52,58.10656053,,,
1.672,52,87.52389238,,,
1.676,52,75.52514448,,,
1.68,52,80.28838926,,,
1.684,52,71.4854949,,,
1.688,52,55.25951702,,,
1.692,52,66.34102487,,,
1.696,53,83.81147991,,,
1.7,53,67.84602844,,,
1.704,53,53.42818716,,,
1.708,53,65.33130241,,,
1.712,53,61.63166267,,,
1.716,53,60.15726599,,,
1.72,53,45.58417958,,,
1.724,53,12.19811712,,,
1.728,54,8.927199921,,,
1.732,54,17.17515226,,,
1.736,54,29.64670644,,,
1.74,54,59.17097629,,,
1.744,54,50.04985852,,,
1.748,54,20.43326756,,,
1.752,54,34.71251563,,,
1.756,54,35.93414173,,,
1.76,55,23.23876327,,,
1.764,55,28.33232859,,,
1.768,55,-0.098749211,,,
1.772,55,-28.76774049,,,
1.776,55,-22.72468719,,,
1.78,55,6.591323003,,,
1.784,55,31.92645802,,,
1.788,55,27.98232152,,,
1.792,56,34.17510263,,,
1.796,56,38.89171274,,,
1.8,56,32.13465959,,,
1.804,56,51.44893705,,,
1.808,56,79.12132795,,,
1.812,56,86.76979735,,,
1.816,56,63.02097276,,,
1.82,56,26.10363175,,,
1.824,57,12.65051189,,,
1.828,57,37.80549929,,,
1.832,57,62.41966861,,,
1.836,57,39.25437261,,,
1.84,57,18.67710102,,,
1.844,57,18.24106089,,,
1.848,57,-1.065079823,,,
1.852,57,2.209074373,,,
1.856,58,33.57697073,,,
1.86,58,39.10648284,,,
1.864,58,41.84412747,,,
1.868,58,68.79646061,,,
1.872,58,78.53763701,,,
1.876,58,67.94666816,,,
1.88,58,75.86354805,,,
1.884,58,80.9552237,,,
1.888,59,55.18802611,,,
1.892,59,6.119136847,,,
1.896,59,-17.15677087,,,
1.9,59,13.46864827,,,
1.904,59,41.29183049,,,
1.908,59,59.15641931,,,
1.912,59,77.08097353,,,
1.916,59,44.59375952,,,
1.92,60,10.42616226,,,
1.924,60,46.76780775,,,
1.928,60,83.79957722,,,
1.932,60,59.07646699,,,
1.936,60,5.477667507,,,
1.94,60,-15.82796075,,,
1.944,60,30.91227735,,,
1.948,60,82.4452171,,,
1.952,61,83.67088171,,,
1.956,61,43.63922359,,,
1.96,61,-10.55344157,,,
1.964,61,-10.59252331,,,
1.968,61,27.62190027,,,
1.972,61,31.5107979,,,
1.976,61,30.11395291,,,
1.98,61,35.73387947,,,
1.984,62,18.92056162,,,
1.988,62,22.14587433,,,
1.992,62,36.30237477,,,
1.996,62,15.22253118,,,
2,62,24.12618176,,,
2.004,62,63.62050069,,,
2.008,62,65.16653103,,,
2.012,62,61.20216774,,,
2.016,63,61.96674266,,,
2.02,63,42.77355833,,,
2.024,63,28.58556982,,,
2.028,63,38.70675092,,,
2.032,63,40.22556024,,,
2.036,63,44.32759459,,,
2.04,63,68.60280622,,,
2.044,63,59.49583722,,,
2.048,64,36.45128068,,,
2.052,64,53.68600845,,,
2.056,64,75.59097295,,,
2.06,64,71.59694542,,,
2.064,64,65.38346202,,,
2.068,64,41.84115341,,,
2.072,64,34.22289503,,,
2.076,64,60.45570677,,,
2.08,65,47.27262086,,,
2.084,65,39.21723364,,,
2.088,65,52.32915978,,,
2.092,65,25.24503589,,,
2.096,65,25.95416785,,,
2.1,65,58.18249833,,,
2.104,65,56.89563146,,,
2.108,65,46.12064491,,,
2.112,66,34.34505657,,,
2.116,66,26.49967008,,,
2.12,66,22.692482,,,
2.124,66,27.76846738,,,
2.128,66,39.41113367,,,
2.132,66,26.09938566,,,
2.136,66,-18.08383897,,,
2.14,66,-50.52941187,,,
2.144,67,-17.43549347,,,
2.148,67,-5.420378305,,,
2.152,67,-19.23494051,,,
2.156,67,50.27211745,,,
2.16,67,89.05146976,,,
2.164,67,50.51006715,,,
2.168,67,70.28308601,,,
2.172,67,100.6863081,,,
2.176,68,60.34802364,,,
2.18,68,38.85211923,,,
2.184,68,46.68414483,,,
2.188,68,30.48011898,,,
2.192,68,16.29424909,,,
2.196,68,25.24108514,,,
2.2,68,46.50006566,,,
2.204,68,64.76032083,,,
2.208,69,82.39668396,,,
2.212,69,104.2335661,,,
2.216,69,97.52104622,,,
2.22,69,54.13510579,,,
2.224,69,20.78430482,,,
2.228,69,48.77646511,,,
2.232,69,88.0396009,,,
2.236,69,79.14408261,,,
2.24,70,68.32366162,,,
2.244,70,49.93997419,,,
2.248,70,-1.646797509,,,
2.252,70,-3.063029833,,,
2.256,70,40.14223652,,,
2.26,70,39.37312113,,,
2.264,70,28.14965089,,,
2.268,70,15.59630071,,,
2.272,71,-7.595372433,,,
2.276,71,-8.329495457,,,
2.28,71,13.86091559,,,
2.284,71,47.25613059,,,
2.288,71,60.1523698,,,
2.292,71,54.8326334,,,
2.296,71,44.38951168,,,
2.3,71,23.60862434,,,
2.304,72,47.75857651,,,
2.308,72,85.86634097,,,
2.312,72,63.46407086,,,
2.316,72,58.89238468,,,
2.32,72,83.25464539,,,
2.324,72,56.39080066,,,
2.328,72,33.54899566,,,
2.332,72,45.60299061,,,
2.336,73,25.74607118,,,
2.34,73,9.675333645,,,
2.344,73,41.28512453,,,
2.348,73,51.81622539,,,
2.352,73,28.44926568,,,
2.356,73,-6.657355856,,,
2.36,73,-29.99009012,,,
2.364,73,10.81513337,,,
2.368,74,63.30938832,,,
2.372,74,65.92623453,,,
2.376,74,53.87069074,,,
2.38,74,46.54199705,,,
2.384,74,31.3235328,,,
2.388,74,19.22139879,,,
2.392,74,34.83037134,,,
2.396,74,41.6256258,,,
2.4,75,6.867989175,,,
2.404,75,6.960689703,,,
2.408,75,33.90283351,,,
2.412,75,13.90236511,,,
2.416,75,22.92988166,,,
2.42,75,66.05931136,,,
2.424,75,67.16944692,,,
2.428,75,65.99250687,,,
2.432,76,58.65160482,,,
2.436,76,39.30006961,,,
2.44,76,27.9200466,,,
2.444,76,15.44475488,,,
2.448,76,33.37395874,,,
2.452,76,49.99141881,,,
2.456,76,31.71510248,,,
2.46,76,32.67897618,,,
2.464,77,39.74898413,,,
2.468,77,20.41245439,,,
2.472,77,36.79027629,,,
2.476,77,85.02946554,,,
2.48,77,87.11492721,,,
2.484,77,64.208191,,,
2.488,77,64.19895768,,,
2.492,77,68.82109958,,,
2.496,78,47.4294308,,,
2.5,78,25.05934613,,,
2.504,78,14.06158247,,,
2.508,78,3.433743091,,,
2.512,78,17.33269141,,,
2.516,78,33.39349631,,,
2.52,78,35.17216018,,,
2.524,78,51.45658093,,,
2.528,79,65.08528987,,,
2.532,79,61.19440057,,,
2.536,79,50.87476095,,,
2.54,79,29.05392948,,,
2.544,79,1.696436988,,,
2.548,79,-29.19137531,,,
2.552,79,-6.103305369,,,
2.556,79,65.30520923,,,
2.56,80,99.80723539,,,
2.564,80,122.6974944,,,
2.568,80,113.2311454,,,
2.572,80,75.39039715,,,
2.576,80,67.50703713,,,
2.58,80,55.80626936,,,
2.584,80,34.77142589,,,
2.588,80,23.66290058,,,
2.592,81,28.08471814,,,
2.596,81,43.3418049,,,
2.6,81,68.97294886,,,
2.604,81,74.88645222,,,
2.608,81,34.07673574,,,
2.612,81,21.62386551,,,
2.616,81,38.16474373,,,
2.62,81,37.80393191,,,
2.624,82,34.68861809,,,
2.628,82,34.09450725,,,
2.632,82,39.55475409,,,
2.636,82,32.77006016,,,
2.64,82,20.15662914,,,
2.644,82,46.22573775,,,
2.648,82,72.74750146,,,
2.652,82,36.80198794,,,
2.656,83,26.07386313,,,
2.66,83,62.84640629,,,
2.664,83,44.26436007,,,
2.668,83,28.83212879,,,
2.672,83,42.43773097,,,
2.676,83,20.5547777,,,
2.68,83,19.0428175,,,
2.684,83,42.26700711,,,
2.688,84,28.07137698,,,
2.692,84,1.964604978,,,
2.696,84,0.610551557,,,
2.7,84,24.62073174,,,
2.704,84,59.11584125,,,
2.708,84,76.35720859,,,
2.712,84,64.76453693,,,
2.716,84,30.05063383,,,
2.72,85,1.291307727,,,
2.724,85,7.782641548,,,
2.728,85,22.79915611,,,
2.732,85,37.10576906,,,
2.736,85,67.56933878,,,
2.74,85,90.98227149,,,
2.744,85,78.18099023,,,
2.748,85,53.93430024,,,
2.752,86,51.54101447,,,
2.756,86,58.49975269,,,
2.76,86,51.51379483,,,
2.764,86,36.16901284,,,
2.768,86,31.29828759,,,
2.772,86,31.36214109,,,
2.776,86,34.97130002,,,
2.78,86,14.10970581,,,
2.784,87,-15.51454647,,,
2.788,87,27.62409837,,,
2.792,87,81.14716663,,,
2.796,87,81.40385709,,,
2.8,87,78.87727299,,,
2.804,87,68.26748223,,,
2.808,87,40.85539452,,,
2.812,87,47.84864507,,,
2.816,88,90.01587768,,,
2.82,88,93.67248071,,,
2.824,88,47.35524233,,,
2.828,88,7.32799179,,,
2.832,88,-8.567890275,,,
2.836,88,-14.39190512,,,
2.84,88,-6.71762189,,,
2.844,88,18.08061053,,,
2.848,89,64.20442442,,,
2.852,89,93.75148627,,,
2.856,89,91.56946748,,,
2.86,89,83.91281827,,,
2.864,89,64.17158398,,,
2.868,89,33.68513128,,,
2.872,89,23.10472942,,,
2.876,89,37.79726259,,,
2.88,90,32.80371501,,,
2.884,90,32.23252713,,,
2.888,90,58.2965245,,,
2.892,90,59.570534,,,
2.896,90,37.19767331,,,
2.9,90,47.41375203,,,
2.904,90,83.73566797,,,
2.908,90,90.11502709,,,
2.912,91,66.75218583,,,
2.916,91,34.1450623,,,
2.92,91,13.79900101,,,
2.924,91,26.05709836,,,
2.928,91,43.44315789,,,
2.932,91,56.18603466,,,
2.936,91,63.61314911,,,
2.94,91,54.50640148,,,
2.944,92,64.36660966,,,
2.948,92,68.88803886,,,
2.952,92,32.45418898,,,
2.956,92,0.595561136,,,
2.96,92,19.26144589,,,
2.964,92,63.29344831,,,
2.968,92,58.51287926,,,
2.972,92,36.21496182,,,
2.976,93,44.69774263,,,
2.98,93,33.66713048,,,
2.984,93,21.19985002,,,
2.988,93,30.90620526,,,
2.992,93,45.52010758,,,
2.996,93,74.11041473,,,
3,93,69.05561902,,,
3.004,93,30.06524438,,,
3.008,94,8.034804013,,,
3.012,94,4.411975234,,,
3.016,94,19.45454799,,,
3.02,94,42.70512475,,,
3.024,94,43.23733465,,,
3.028,94,12.13582083,,,
3.032,94,-9.036459304,,,
3.036,94,0.545384994,,,
3.04,95,0.866012267,,,
3.044,95,-13.42511205,,,
3.048,95,-32.98384389,,,
3.052,95,-48.05912091,,,
3.056,95,-38.66645965,,,
3.06,95,-5.35832453,,,
3.064,95,44.50885281,,,
3.068,95,48.52264651,,,
3.072,96,13.26041041,,,
3.076,96,20.97769214,,,
3.08,96,41.78582513,,,
3.084,96,42.72121684,,,
3.088,96,30.85915107,,,
3.092,96,15.27610084,,,
3.096,96,6.65447284,,,
3.1,96,-19.61996415,,,
3.104,97,-29.70619,,,
3.108,97,-12.34704685,,,
3.112,97,-6.124574667,,,
3.116,97,13.30968055,,,
3.12,97,13.87682774,,,
3.124,97,-14.13262604,,,
3.128,97,-4.139497956,,,
3.132,97,2.245123658,,,
3.136,98,5.422936061,,,
3.14,98,57.35703989,,,
3.144,98,46.96427163,,,
3.148,98,-17.75598551,,,
3.152,98,-16.89539647,,,
3.156,98,-7.172509453,,,
3.16,98,-20.66593746,,,
3.164,98,-0.257395792,,,
3.168,99,2.950359077,,,
3.172,99,-42.82353782,,,
3.176,99,-40.48153304,,,
3.18,99,-2.853304681,,,
3.184,99,-20.65757484,,,
3.188,99,-48.47499451,,,
3.192,99,-7.162405059,,,
3.196,99,41.2533626,,,
3.2,100,54.53228023,,,
3.204,100,67.51920206,,,
3.208,100,7.826507509,,,
3.212,100,-98.05418522,,,
3.216,100,-106.722929,,,
3.22,100,-44.62209134,,,
3.224,100,0.225788203,,,
3.228,100,-0.48185177,,,
3.232,101,-33.45294301,,,
3.236,101,-59.10163106,,,
3.24,101,-48.10006343,,,
3.244,101,-18.11812315,,,
3.248,101,-15.89113901,,,
3.252,101,-19.27853423,,,
3.256,101,-8.901717721,,,
3.26,101,-35.53276434,,,
3.264,102,-65.56355714,,,
3.268,102,-63.38666874,,,
3.272,102,-48.37287662,,,
3.276,102,-8.749387034,,,
3.28,102,35.64665908,,,
3.284,102,42.51764746,,,
3.288,102,9.10971985,,,
3.292,102,-7.984598503,,,
3.296,103,12.98341911,,,
3.3,103,25.95335029,,,
3.304,103,36.20990673,,,
3.308,103,47.93742346,,,
3.312,103,36.38123656,,,
3.316,103,20.50820001,,,
3.32,103,32.36906532,,,
3.324,103,74.46276785,,,
3.328,104,84.35903426,,,
3.332,104,37.71591515,,,
3.336,104,23.24878164,,,
3.34,104,59.77899246,,,
3.344,104,56.40949157,,,
3.348,104,7.592366005,,,
3.352,104,-6.228894414,,,
3.356,104,8.412803554,,,
3.36,105,0.698032733,,,
3.364,105,-10.47990602,,,
3.368,105,-37.29341766,,,
3.372,105,-87.06926874,,,
3.376,105,-71.71193808,,,
3.38,105,-1.26256853,,,
3.384,105,1.633207615,,,
3.388,105,-57.12145114,,,
3.392,106,-104.3823534,,,
3.396,106,-119.6341116,,,
3.4,106,-98.05826479,,,
3.404,106,-70.82913738,,,
3.408,106,-65.46353128,,,
3.412,106,-59.15954259,,,
3.416,106,-77.27184522,,,
3.42,106,-92.2983287,,,
3.424,107,-35.89704934,,,
3.428,107,21.0454356,,,
3.432,107,24.11587625,,,
3.436,107,48.05569501,,,
3.44,107,65.66923724,,,
3.444,107,9.190710739,,,
3.448,107,-27.57697464,,,
3.452,107,-23.06355588,,,
3.456,108,-50.60536842,,,
3.46,108,-104.4356372,,,
3.464,108,-100.3728422,,,
3.468,108,-35.38346924,,,
3.472,108,-38.73587828,,,
3.476,108,-107.3696254,,,
3.48,108,-132.8487825,,,
3.484,108,-127.4871584,,,
3.488,109,-117.1489861,,,
3.492,109,-65.41388888,,,
3.496,109,-4.392470878,,,
3.5,109,-0.860114974,,,
3.504,109,-26.79509225,,,
3.508,109,-18.53596376,,,
3.512,109,-15.40356325,,,
3.516,109,-28.46430489,,,
3.52,110,-30.44999474,,,
3.524,110,-64.57422659,,,
3.528,110,-80.95718056,,,
3.532,110,-63.07639053,,,
3.536,110,-70.8269918,,,
3.54,110,-40.48165526,,,
3.544,110,5.935761682,,,
3.548,110,-50.52139215,,,
3.552,111,-130.0443974,,,
3.556,111,-101.5335808,,,
3.56,111,-25.39978813,,,
3.564,111,-0.811278468,,,
3.568,111,-34.99003471,,,
3.572,111,-113.1049583,,,
3.576,111,-149.9203775,,,
3.58,111,-71.49888864,,,
3.584,112,8.457584451,,,
3.588,112,-22.98259533,,,
3.592,112,-111.2617233,,,
3.596,112,-147.3596173,,,
3.6,112,-102.411304,,,
3.604,112,-36.24257833,,,
3.608,112,-18.46318457,,,
3.612,112,-79.90199398,,,
3.616,113,-133.4366121,,,
3.62,113,-90.8764658,,,
3.624,113,-44.51778297,,,
3.628,113,-96.60361532,,,
3.632,113,-136.1923072,,,
3.636,113,-75.76543697,,,
3.64,113,-30.09600356,,,
3.644,113,-39.20960169,,,
3.648,114,-33.01242134,,,
3.652,114,-74.97452661,,,
3.656,114,-143.5094471,,,
3.66,114,-88.63655626,,,
3.664,114,-36.28406165,,,
3.668,114,-112.3911954,,,
3.672,114,-113.0285033,,,
3.676,114,-10.85121727,,,
3.68,115,49.98568301,,,
3.684,115,72.31014718,,,
3.688,115,32.78888586,,,
3.692,115,-17.48449601,,,
3.696,115,-4.990618746,,,
3.7,115,20.52357606,,,
3.704,115,51.22012869,,,
3.708,115,70.74095719,,,
3.712,116,46.5257375,,,
3.716,116,49.59609321,,,
3.72,116,66.89873613,,,
3.724,116,21.53146884,,,
3.728,116,-43.55251639,,,
3.732,116,-46.38034082,,,
3.736,116,-8.932549258,,,
3.74,116,-2.416438683,,,
3.744,117,-19.40804193,,,
3.748,117,6.879455504,,,
3.752,117,49.54706946,,,
3.756,117,36.53542273,,,
3.76,117,-8.952326639,,,
3.764,117,-31.81852788,,,
3.768,117,-10.42511468,,,
3.772,117,29.46297804,,,
3.776,118,69.12500369,,,
3.78,118,82.09800642,,,
3.784,118,36.67871738,,,
3.788,118,0.750991701,,,
3.792,118,34.64745387,,,
3.796,118,46.85614527,,,
3.8,118,-21.66887942,,,
3.804,118,-27.71428921,,,
3.808,119,96.31172467,,,
3.812,119,181.9887997,,,
3.816,119,170.1540178,,,
3.82,119,141.8054684,,,
3.824,119,112.36755,,,
3.828,119,99.23003706,,,
3.832,119,119.0029488,,,
3.836,119,125.4111337,,,
3.84,120,111.2884311,,,
3.844,120,105.1189396,,,
3.848,120,92.92893613,,,
3.852,120,83.09547555,,,
3.856,120,100.8747577,,,
3.86,120,93.77772617,,,
3.864,120,48.75135196,,,
3.868,120,95.67914094,,,
3.872,121,170.6618436,,,
3.876,121,144.8492574,,,
3.88,121,140.6663795,,,
3.884,121,152.2966279,,,
3.888,121,107.9656102,,,
3.892,121,122.960751,,,
3.896,121,173.0032437,,,
3.9,121,153.2046903,,,
3.904,122,103.8910643,,,
3.908,122,64.79432486,,,
3.912,122,54.09987495,,,
3.916,122,63.32709703,,,
3.92,122,77.2862434,,,
3.924,122,99.81189574,,,
3.928,122,86.80266359,,,
3.932,122,64.9724138,,,
3.936,123,66.80670001,,,
3.94,123,78.23755798,,,
3.944,123,105.2773021,,,
3.948,123,114.5188699,,,
3.952,123,82.98651292,,,
3.956,123,12.34424737,,,
3.96,123,-34.93037546,,,
3.964,123,5.85810527,,,
3.968,124,51.85734436,,,
3.972,124,45.86860656,,,
3.976,124,54.50858988,,,
3.98,124,55.67058228,,,
3.984,124,41.22717497,,,
3.988,124,82.83418898,,,
3.992,124,144.274835,,,
3.996,124,169.9037806,,,
4,125,179.7340132,,,
4.004,125,166.3968182,,,
4.008,125,148.0175019,,,
4.012,125,151.8340425,,,
4.016,125,146.2546308,,,
4.02,125,111.6139491,,,
4.024,125,65.4875169,,,
4.028,125,59.87096946,,,
4.032,126,112.235151,,,
4.036,126,191.6586252,,,
4.04,126,218.2024197,,,
4.044,126,202.522936,,,
4.048,126,216.1395399,,,
4.052,126,218.9421908,,,
4.056,126,201.9774044,,,
4.06,126,198.2453038,,,
4.064,127,205.2231928,,,
4.068,127,165.6864383,,,
4.072,127,125.237196,,,
4.076,127,136.8774421,,,
4.08,127,102.0828168,,,
4.084,127,77.37850205,,,
4.088,127,122.0486796,,,
4.092,127,157.2989248,,,
4.096,128,164.4779441,,,
4.1,128,143.7027971,,,
4.104,128,123.6247895,,,
4.108,128,144.4444206,,,
4.112,128,176.671176,,,
4.116,128,214.0944521,,,
4.12,128,241.9081188,,,
4.124,128,247.0139107,,,
4.128,129,244.7450649,,,
4.132,129,220.069944,,,
4.136,129,194.6099486,,,
4.14,129,194.7833242,,,
4.144,129,192.9744791,,,
4.148,129,199.2882101,,,
4.152,129,247.1537935,,,
4.156,129,242.6708282,,,
4.16,130,195.7952103,,,
4.164,130,234.7525559,,,
4.168,130,287.5942102,,,
4.172,130,290.0677831,,,
4.176,130,284.8919612,,,
4.18,130,268.710502,,,
4.184,130,238.58812,,,
4.188,130,218.5043333,,,
4.192,131,239.8935083,,,
4.196,131,259.0166149,,,
4.2,131,227.2220358,,,
4.204,131,197.3420894,,,
4.208,131,185.7509463,,,
4.212,131,175.0862789,,,
4.216,131,158.4546463,,,
4.22,131,153.6828151,,,
4.224,132,199.3351512,,,
4.228,132,240.5668726,,,
4.232,132,216.8612474,,,
4.236,132,202.340341,,,
4.24,132,222.2099654,,,
4.244,132,191.4634541,,,
4.248,132,142.07365,,,
4.252,132,130.5747599,,,
4.256,133,99.38330794,,,
4.26,133,77.5181184,,,
4.264,133,88.32392102,,,
4.268,133,109.1247699,,,
4.272,133,146.9786171,,,
4.276,133,146.6066609,,,
4.28,133,111.0885351,,,
4.284,133,64.73298654,,,
4.288,134,31.32913734,,,
4.292,134,18.05881704,,,
4.296,134,4.205496992,,,
4.3,134,39.73658199,,,
4.304,134,98.84735193,,,
4.308,134,157.4681368,,,
4.312,134,198.1988901,,,
4.316,134,160.5806424,,,
4.32,135,82.17753577,,,
4.324,135,60.92309382,,,
4.328,135,125.6076842,,,
4.332,135,162.3644294,,,
4.336,135,145.6416889,,,
4.34,135,155.9724499,,,
4.344,135,144.5844263,,,
4.348,135,140.2103457,,,
4.352,136,170.4006553,,,
4.356,136,143.143165,,,
4.36,136,126.8920468,,,
4.364,136,130.0423081,,,
4.368,136,111.5327746,,,
4.372,136,126.9506319,,,
4.376,136,133.7733354,,,
4.38,136,122.674195,,,
4.384,137,100.5268563,,,
4.388,137,42.08051227,,,
4.392,137,26.27468432,,,
4.396,137,69.30641706,,,
4.4,137,126.0425143,,,
4.404,137,147.1224635,,,
4.408,137,101.0754277,,,
4.412,137,74.69185581,,,
4.416,138,98.99039019,,,
4.42,138,160.9864477,,,
4.424,138,192.9284152,,,
4.428,138,133.8821011,,,
4.432,138,96.43361612,,,
4.436,138,114.0873953,,,
4.44,138,101.0540265,,,
4.444,138,75.97237941,,,
4.448,139,54.57000687,,,
4.452,139,9.077698407,,,
4.456,139,15.30488615,,,
4.46,139,84.55572076,,,
4.464,139,106.3415112,,,
4.468,139,110.8774427,,,
4.472,139,127.0532829,,,
4.476,139,95.98171015,,,
4.48,140,94.86210016,,,
4.484,140,155.7096277,,,
4.488,140,209.1984531,,,
4.492,140,256.3281734,,,
4.496,140,276.9072417,,,
4.5,140,242.880585,,,
4.504,140,204.6620464,,,
4.508,140,213.3795883,,,
4.512,141,211.4571547,,,
4.516,141,160.0727032,,,
4.52,141,120.8022329,,,
4.524,141,112.4736931,,,
4.528,141,130.0399866,,,
4.532,141,143.577266,,,
4.536,141,139.7273043,,,
4.54,141,163.7912119,,,
4.544,142,182.52066,,,
4.548,142,136.004734,,,
4.552,142,88.27516731,,,
4.556,142,93.7772589,,,
4.56,142,103.10366,,,
4.564,142,106.0449374,,,
4.568,142,77.48660731,,,
4.572,142,27.46321152,,,
4.576,143,11.20451431,,,
4.58,143,17.58440449,,,
4.584,143,52.57394287,,,
4.588,143,58.18606456,,,
4.592,143,30.95713734,,,
4.596,143,40.21315207,,,
4.6,143,61.97723041,,,
4.604,143,46.63709379,,,
4.608,144,-9.294639488,,,
4.612,144,-27.5033514,,,
4.616,144,20.1796309,,,
4.62,144,61.96888473,,,
4.624,144,73.88041229,,,
4.628,144,59.62603803,,,
4.632,144,9.727894096,,,
4.636,144,1.719016897,,,
4.64,145,37.87846907,,,
4.644,145,52.24363313,,,
4.648,145,73.72220019,,,
4.652,145,71.45885797,,,
4.656,145,42.89111475,,,
4.66,145,78.71174507,,,
4.664,145,129.4648229,,,
4.668,145,108.7836051,,,
4.672,146,62.51466445,,,
4.676,146,46.750818,,,
4.68,146,45.25214754,,,
4.684,146,8.720701448,,,
4.688,146,-1.652802673,,,
4.692,146,65.36290194,,,
4.696,146,108.7704534,,,
4.7,146,120.5436005,,,
4.704,147,117.6777988,,,
4.708,147,65.60066325,,,
4.712,147,42.61789255,,,
4.716,147,58.5938046,,,
4.72,147,43.27937397,,,
4.724,147,50.3685662,,,
4.728,147,54.83372155,,,
4.732,147,-3.56130347,,,
4.736,148,-2.735614581,,,
4.74,148,42.91378829,,,
4.744,148,22.60351763,,,
4.748,148,41.17021725,,,
4.752,148,97.16077516,,,
4.756,148,57.74307152,,,
4.76,148,31.61676453,,,
4.764,148,44.44434882,,,
4.768,149,-10.07418452,,,
4.772,149,-35.659689,,,
4.776,149,-22.50832362,,,
4.78,149,-57.73531846,,,
4.784,149,-76.18865539,,,
4.788,149,-44.17303048,,,
4.792,149,-33.97865223,,,
4.796,149,-18.39531374,,,
4.8,150,7.559714185,,,
4.804,150,-16.71148904,,,
4.808,150,-40.25808562,,,
4.812,150,-62.01861783,,,
4.816,150,-83.98444473,,,
4.82,150,-48.81050654,,,
4.824,150,-38.46070462,,,
4.828,150,-88.33551283,,,
4.832,151,-114.8116279,,,
4.836,151,-109.5867924,,,
4.84,151,-91.45568335,,,
4.844,151,-66.89089211,,,
4.848,151,-30.31815974,,,
4.852,151,7.365102072,,,
4.856,151,23.74016113,,,
4.86,151,42.50751104,,,
4.864,152,56.45109178,,,
4.868,152,21.38283422,,,
4.872,152,-22.33426929,,,
4.876,152,3.802991294,,,
4.88,152,44.84678752,,,
4.884,152,52.78067381,,,
4.888,152,71.2937589,,,
4.892,152,53.53197295,,,
4.896,153,11.76249491,,,
4.9,153,11.46494124,,,
4.904,153,17.69136569,,,
4.908,153,32.50664316,,,
4.912,153,67.37769694,,,
4.916,153,46.44160715,,,
4.92,153,-24.04308231,,,
4.924,153,-10.83147539,,,
4.928,154,37.72862543,,,
4.932,154,13.1225944,,,
4.936,154,10.54296685,,,
4.94,154,44.50459637,,,
4.944,154,1.861468831,,,
4.948,154,-27.28648954,,,
4.952,154,13.25167245,,,
4.956,154,26.06766874,,,
4.96,155,36.86240467,,,
4.964,155,64.79096681,,,
4.968,155,72.50933865,,,
4.972,155,59.7390837,,,
4.976,155,36.88865593,,,
4.98,155,30.15045016,,,
4.984,155,35.50724997,,,
4.988,155,15.93580325,,,
4.992,156,-16.19401725,,,
4.996,156,-9.82250425,,,
5,156,19.65825284,,,
5.004,156,2.692813182,,,
5.008,156,-37.09993488,,,
5.012,156,-19.13338187,,,
5.016,156,38.68158912,,,
5.02,156,34.70466695,,,
5.024,157,-11.63194268,,,
5.028,157,-15.99963091,,,
5.032,157,-20.90191736,,,
5.036,157,-6.99208417,,,
5.04,157,50.3822189,,,
5.044,157,51.4941673,,,
5.048,157,9.844163654,,,
5.052,157,-17.6438399,,,
5.056,158,-22.56385651,,,
5.06,158,6.252815476,,,
5.064,158,18.55818105,,,
5.068,158,20.7095441,,,
5.072,158,32.60370176,,,
5.076,158,9.55033873,,,
5.08,158,-17.91890735,,,
5.084,158,4.711322023,,,
5.088,159,19.64388583,,,
5.092,159,7.082083185,,,
5.096,159,5.901863852,,,
5.1,159,-2.213994466,,,
5.104,159,-15.075238,,,
5.108,159,-17.03035349,,,
5.112,159,-17.27680664,,,
5.116,159,-3.458233515,,,
5.12,160,6.828913706,,,
5.124,160,-16.66144587,,,
5.128,160,-16.46231264,,,
5.132,160,-9.093092754,,,
5.136,160,-38.18600611,,,
5.14,160,-36.93911188,,,
5.144,160,-19.1281544,,,
5.148,160,6.641824944,,,
5.152,161,50.77209586,,,
5.156,161,47.80169185,,,
5.16,161,35.66712478,,,
5.164,161,37.2329684,,,
5.168,161,32.03118647,,,
5.172,161,51.28899849,,,
5.176,161,71.4286869,,,
5.18,161,81.77924195,,,
5.184,162,89.53632049,,,
5.188,162,79.78471407,,,
5.192,162,67.61477667,,,
5.196,162,57.72168281,,,
5.2,162,24.57958345,,,
5.204,162,-12.9551792,,,
5.208,162,1.224664642,,,
5.212,162,17.09379959,,,
5.216,163,-23.00760187,,,
5.22,163,-35.50625728,,,
5.224,163,-3.524702061,,,
5.228,163,-10.78418226,,,
5.232,163,-33.91110241,,,
5.236,163,-5.028205916,,,
5.24,163,38.27784898,,,
5.244,163,46.59544667,,,
5.248,164,39.29612096,,,
5.252,164,10.13748209,,,
5.256,164,-18.22061585,,,
5.26,164,20.33357478,,,
5.264,164,75.52250773,,,
5.268,164,64.1532997,,,
5.272,164,17.85531562,,,
5.276,164,-1.929025643,,,
5.28,165,-5.136589932,,,
5.284,165,-7.483177068,,,
5.288,165,1.722462818,,,
5.292,165,4.794397957,,,
5.296,165,34.5955957,,,
5.3,165,77.51615952,,,
5.304,165,59.6618679,,,
5.308,165,39.24751082,,,
5.312,166,53.46410123,,,
5.316,166,58.57978876,,,
5.32,166,41.6333175,,,
5.324,166,20.14339351,,,
5.328,166,6.737490776,,,
5.332,166,-7.1539535,,,
5.336,166,-8.924245724,,,
5.34,166,-11.98144442,,,
5.344,167,-24.93645692,,,
5.348,167,-44.54368638,,,
5.352,167,-69.39047853,,,
5.356,167,-59.94757454,,,
5.36,167,-43.5991849,,,
5.364,167,-59.48241362,,,
5.368,167,-56.40975135,,,
5.372,167,-23.98138099,,,
5.376,168,-17.94379711,,,
5.38,168,-3.578532437,,,
5.384,168,45.77205574,,,
5.388,168,69.76060576,,,
5.392,168,52.42756313,,,
5.396,168,9.359077109,,,
5.4,168,-13.15815919,,,
5.404,168,18.71114457,,,
5.408,169,48.98345111,,,
5.412,169,49.00527995,,,
5.416,169,16.85240455,,,
5.42,169,-31.59826767,,,
5.424,169,-39.56798486,,,
5.428,169,-12.82667271,,,
5.432,169,26.06579811,,,
5.436,169,43.34319804,,,
5.44,170,23.30418136,,,
5.444,170,17.97217873,,,
5.448,170,23.5411884,,,
5.452,170,25.55402729,,,
5.456,170,44.45393158,,,
5.46,170,45.58236337,,,
5.464,170,30.40334698,,,
5.468,170,27.98954799,,,
5.472,171,6.491027951,,,
5.476,171,-3.413333788,,,
5.48,171,28.14675671,,,
5.484,171,53.20906037,,,
5.488,171,44.38127796,,,
5.492,171,18.69187463,,,
5.496,171,-10.40885786,,,
5.5,171,-37.17314746,,,
5.504,172,-28.17905608,,,
5.508,172,15.27847964,,,
5.512,172,54.8955265,,,
5.516,172,68.60316766,,,
5.52,172,61.14427455,,,
5.524,172,40.97790905,,,
5.528,172,7.750784654,,,
5.532,172,-26.75863246,,,
5.536,173,-10.10315818,,,
5.54,173,53.52051334,,,
5.544,173,61.85965741,,,
5.548,173,18.88079534,,,
5.552,173,-1.246708088,,,
5.556,173,-7.982155367,,,
5.56,173,8.780288115,,,
5.564,173,75.38840829,,,
5.568,174,124.2086581,,,
5.572,174,91.80964959,,,
5.576,174,13.39887532,,,
5.58,174,-39.89079253,,,
5.584,174,-32.91708311,,,
5.588,174,12.62966142,,,
5.592,174,54.5020228,,,
5.596,174,73.69811851,,,
5.6,175,84.41065806,,,
5.604,175,82.93770025,,,
5.608,175,48.7900207,,,
5.612,175,30.4270846,,,
5.616,175,24.70420806,,,
5.62,175,-8.98022965,,,
5.624,175,-12.20476691,,,
5.628,175,23.63928864,,,
5.632,176,32.07982629,,,
5.636,176,38.57897051,,,
5.64,176,38.36794503,,,
5.644,176,5.930926455,,,
5.648,176,14.38254502,,,
5.652,176,21.93532834,,,
5.656,176,8.423810116,,,
5.66,176,34.44139045,,,
5.664,177,40.948395,,,
5.668,177,-2.091920886,,,
5.672,177,-37.02749049,,,
5.676,177,-33.75055609,,,
5.68,177,-15.64460923,,,
5.684,177,-15.07290938,,,
5.688,177,-17.1195856,,,
5.692,177,-18.96678938,,,
5.696,178,-52.44506346,,,
5.7,178,-68.02764757,,,
5.704,178,-12.24094573,,,
5.708,178,48.58714614,,,
5.712,178,83.19041653,,,
5.716,178,83.94449341,,,
5.72,178,46.5043688,,,
5.724,178,29.65412188,,,
5.728,179,36.15949067,,,
5.732,179,61.63544593,,,
5.736,179,66.65076212,,,
5.74,179,-8.365348767,,,
5.744,179,-69.31460143,,,
5.748,179,-32.80853041,,,
5.752,179,20.17961211,,,
5.756,179,34.00914789,,,
5.76,180,61.15476651,,,
5.764,180,93.6604086,,,
5.768,180,77.84964511,,,
5.772,180,55.77064001,,,
5.776,180,44.75848815,,,
5.78,180,0.281646649,,,
5.784,180,-20.21507035,,,
5.788,180,-1.288722905,,,
5.792,181,20.36142917,,,
5.796,181,48.04400394,,,
5.8,181,39.61736647,,,
5.804,181,37.94276825,,,
5.808,181,72.5133857,,,
5.812,181,65.29804029,,,
5.816,181,23.08369595,,,
5.82,181,7.652645397,,,
5.824,182,33.84990554,,,
5.828,182,66.46814017,,,
5.832,182,60.92809506,,,
5.836,182,34.79226947,,,
5.84,182,6.388084296,,,
5.844,182,-14.80440479,,,
5.848,182,-6.677201231,,,
5.852,182,-4.67560081,,,
5.856,183,3.420060244,,,
5.86,183,35.76047897,,,
5.864,183,59.84755933,,,
5.868,183,71.95107743,,,
5.872,183,59.46242955,,,
5.876,183,28.06663877,,,
5.88,183,1.977955581,,,
5.884,183,1.988571437,,,
5.888,184,34.97751083,,,
5.892,184,64.26838157,,,
5.896,184,85.1051619,,,
5.9,184,100.7634262,,,
5.904,184,59.45885517,,,
5.908,184,12.30285221,,,
5.912,184,15.62509551,,,
5.916,184,31.94006915,,,
5.92,185,49.0675885,,,
5.924,185,42.47691291,,,
5.928,185,18.00279734,,,
5.932,185,1.004896475,,,
5.936,185,-5.503220609,,,
5.94,185,9.711243146,,,
5.944,185,61.01185583,,,
5.948,185,92.19250058,,,
5.952,186,40.25100335,,,
5.956,186,7.535099285,,,
5.96,186,13.60998183,,,
5.964,186,0.647096707,,,
5.968,186,46.49480536,,,
5.972,186,113.4499253,,,
5.976,186,95.16514412,,,
5.98,186,45.09233827,,,
5.984,187,38.70179307,,,
5.988,187,29.24296022,,,
5.992,187,2.936860019,,,
5.996,187,8.433874135,,,
6,187,27.00079053,,,
6.004,187,28.66331132,,,
6.008,187,-7.80422622,,,
6.012,187,-33.59206755,,,
6.016,188,-8.298841236,,,
6.02,188,2.797209242,,,
6.024,188,12.80699695,,,
6.028,188,57.06635243,,,
6.032,188,69.4806692,,,
6.036,188,43.77359534,,,
6.04,188,51.14498376,,,
6.044,188,72.52768756,,,
6.048,189,61.48300389,,,
6.052,189,39.73189336,,,
6.056,189,17.99904475,,,
6.06,189,18.78801066,,,
6.064,189,52.53484379,,,
6.068,189,53.54676633,,,
6.072,189,18.63900283,,,
6.076,189,19.93484545,,,
6.08,190,25.20927447,,,
6.084,190,25.69942649,,,
6.088,190,58.24172447,,,
6.092,190,39.10980776,,,
6.096,190,-38.12263355,,,
6.1,190,-69.93802059,,,
6.104,190,-50.31369327,,,
6.108,190,-8.867633499,,,
6.112,191,21.26453021,,,
6.116,191,11.59634173,,,
6.12,191,5.296153786,,,
6.124,191,13.53203912,,,
6.128,191,2.947877617,,,
6.132,191,-1.129834991,,,
6.136,191,14.18483908,,,
6.14,191,16.94132328,,,
6.144,192,12.00785344,,,
6.148,192,-8.054102414,,,
6.152,192,-44.17426095,,,
6.156,192,-24.13933127,,,
6.16,192,51.56845391,,,
6.164,192,105.9607713,,,
6.168,192,122.119533,,,
6.172,192,94.49964349,,,
6.176,193,17.1372222,,,
6.18,193,-14.43146116,,,
6.184,193,45.89036376,,,
6.188,193,82.97643834,,,
6.192,193,64.98077902,,,
6.196,193,53.04571403,,,
6.2,193,51.04509957,,,
6.204,193,57.81769863,,,
6.208,194,60.51278866,,,
6.212,194,20.66323548,,,
6.216,194,-5.660389547,,,
6.22,194,19.13819425,,,
6.224,194,37.39576002,,,
6.228,194,55.73525212,,,
6.232,194,81.11784565,,,
6.236,194,67.04032214,,,
6.24,195,61.051138,,,
6.244,195,70.28709732,,,
6.248,195,31.53134398,,,
6.252,195,0.166429384,,,
6.256,195,29.24136163,,,
6.26,195,45.89437481,,,
6.264,195,25.79774165,,,
6.268,195,46.95016048,,,
6.272,196,50.94366751,,,
6.276,196,28.92698728,,,
6.28,196,67.25458568,,,
6.284,196,68.93392445,,,
6.288,196,12.55040174,,,
6.292,196,-3.549021438,,,
6.296,196,14.89075344,,,
6.3,196,51.19709728,,,
6.304,197,93.48962203,,,
6.308,197,94.54900664,,,
6.312,197,70.80340969,,,
6.316,197,57.08415357,,,
6.32,197,50.59053836,,,
6.324,197,54.86586971,,,
6.328,197,68.45594115,,,
6.332,197,118.2924202,,,
6.336,198,149.2749498,,,
6.34,198,114.0526667,,,
6.344,198,94.42958786,,,
6.348,198,103.3956728,,,
6.352,198,86.60103098,,,
6.356,198,57.16899002,,,
6.36,198,46.45415809,,,
6.364,198,25.39034032,,,
6.368,199,18.29682312,,,
6.372,199,33.0932566,,,
6.376,199,31.15983555,,,
6.38,199,44.97814745,,,
6.384,199,59.70877596,,,
6.388,199,44.39393274,,,
6.392,199,41.96322465,,,
6.396,199,45.0857594,,,
6.4,200,8.806084485,,,
6.404,200,-14.06115557,,,
6.408,200,-3.102409278,,,
6.412,200,-16.40761026,,,
6.416,200,-12.18410666,,,
6.42,200,13.83260183,,,
6.424,200,-23.0912241,,,
6.428,200,-51.83680613,,,
6.432,201,2.000529847,,,
6.436,201,8.527814578,,,
6.44,201,-40.56557332,,,
6.444,201,-53.63356285,,,
6.448,201,-58.18690135,,,
6.452,201,-42.3196919,,,
6.456,201,-29.01897809,,,
6.46,201,-69.3316694,,,
6.464,202,-113.7576278,,,
6.468,202,-126.0430475,,,
6.472,202,-118.030094,,,
6.476,202,-129.4110033,,,
6.48,202,-175.0514729,,,
6.484,202,-189.824642,,,
6.488,202,-178.2213759,,,
6.492,202,-178.6837337,,,
6.496,203,-167.5855158,,,
6.5,203,-199.3008807,,,
6.504,203,-255.1916415,,,
6.508,203,-212.9675971,,,
6.512,203,-132.9689426,,,
6.516,203,-103.1785762,,,
6.52,203,-111.4264772,,,
6.524,203,-138.5417143,,,
6.528,204,-152.6701487,,,
6.532,204,-145.8157053,,,
6.536,204,-103.7188775,,,
6.54,204,-43.59205724,,,
6.544,204,-30.8858386,,,
6.548,204,-58.87592902,,,
6.552,204,-50.71480115,,,
6.556,204,-17.69628636,,,
6.56,205,-14.98950134,,,
6.564,205,9.192713071,,,
6.568,205,47.71745124,,,
6.572,205,59.16453877,,,
6.576,205,99.77484723,,,
6.58,205,152.7352847,,,
6.584,205,147.0405752,,,
6.588,205,137.1705441,,,
6.592,206,158.6387059,,,
6.596,206,151.227815,,,
6.6,206,132.5817587,,,
6.604,206,143.8311076,,,
6.608,206,170.9808641,,,
6.612,206,211.7186404,,,
6.616,206,247.2851789,,,
6.62,206,275.5802132,,,
6.624,207,295.1508771,,,
6.628,207,291.5387472,,,
6.632,207,266.5843687,,,
6.636,207,226.3143361,,,
6.64,207,206.7025667,,,
6.644,207,204.2706656,,,
6.648,207,214.4862652,,,
6.652,207,228.8390405,,,
6.656,208,200.8526238,,,
6.66,208,187.8127066,,,
6.664,208,201.1532182,,,
6.668,208,173.6453654,,,
6.672,208,181.4623826,,,
6.676,208,188.140194,,,
6.68,208,119.1902346,,,
6.684,208,105.0993409,,,
6.688,209,147.9729167,,,
6.692,209,135.7759732,,,
6.696,209,86.67386895,,,
6.7,209,60.9739318,,,
6.704,209,57.96579182,,,
6.708,209,51.59359879,,,
6.712,209,40.59419798,,,
6.716,209,30.72672503,,,
6.72,210,30.36607932,,,
6.724,210,50.50310971,,,
6.728,210,72.9009874,,,
6.732,210,83.07521654,,,
6.736,210,75.19018982,,,
6.74,210,47.06673314,,,
6.744,210,37.41559114,,,
6.748,210,42.89363109,,,
6.752,211,28.65338813,,,
6.756,211,16.30438177,,,
6.76,211,33.88104559,,,
6.764,211,71.67858868,,,
6.768,211,103.2289542,,,
6.772,211,98.09512757,,,
6.776,211,57.49263217,,,
6.78,211,35.62048375,,,
6.784,212,27.6042161,,,
6.788,212,13.81067449,,,
6.792,212,25.10804918,,,
6.796,212,10.3667654,,,
6.8,212,-10.31480548,,,
6.804,212,29.81529891,,,
6.808,212,50.47535816,,,
6.812,212,42.95306417,,,
6.816,213,67.68970607,,,
6.82,213,81.73667505,,,
6.824,213,63.40673518,,,
6.828,213,38.69518064,,,
6.832,213,4.273280414,,,
6.836,213,-24.29184105,,,
6.84,213,-26.6721522,,,
6.844,213,-19.85879667,,,
6.848,214,-3.65291527,,,
6.852,214,44.92187342,,,
6.856,214,54.85038792,,,
6.86,214,21.6346082,,,
6.864,214,22.13149401,,,
6.868,214,-4.839612365,,,
6.872,214,-45.40227064,,,
6.876,214,-14.67763706,,,
6.88,215,8.68647495,,,
6.884,215,-32.71965765,,,
6.888,215,-61.48249198,,,
6.892,215,-27.21866394,,,
6.896,215,6.929988387,,,
6.9,215,16.880398,,,
6.904,215,31.10346847,,,
6.908,215,8.696138169,,,
6.912,216,-15.18279408,,,
6.916,216,-1.851281925,,,
6.92,216,13.94517053,,,
6.924,216,21.35170135,,,
6.928,216,10.10840923,,,
6.932,216,-6.98597369,,,
6.936,216,-11.19802012,,,
6.94,216,-1.407613775,,,
6.944,217,17.99404968,,,
6.948,217,45.0933957,,,
6.952,217,66.32024522,,,
6.956,217,63.61962993,,,
6.96,217,45.56802003,,,
6.964,217,40.63670725,,,
6.968,217,49.04533774,,,
6.972,217,42.84600343,,,
6.976,218,39.90640923,,,
6.98,218,57.34632656,,,
6.984,218,58.18725114,,,
6.988,218,28.20238915,,,
6.992,218,-1.363117119,,,
6.996,218,-2.870716349,,,
7,218,6.866231306,,,
7.004,218,-15.38718599,,,
7.008,219,-19.4381728,,,
7.012,219,11.91571636,,,
7.016,219,16.01831644,,,
7.02,219,13.7780635,,,
7.024,219,15.94563167,,,
7.028,219,-8.676314162,,,
7.032,219,-40.92825914,,,
7.036,219,-33.46076864,,,
7.04,220,-2.604106656,,,
7.044,220,-4.951674611,,,
7.048,220,-36.78959691,,,
7.052,220,-53.53635422,,,
7.056,220,-16.1263829,,,
7.06,220,31.35481888,,,
7.064,220,44.5834659,,,
7.068,220,67.5564256,,,
7.072,221,61.84091578,,,
7.076,221,19.30895976,,,
7.08,221,-3.525502523,,,
7.084,221,13.99967714,,,
7.088,221,46.99993466,,,
7.092,221,64.18040561,,,
7.096,221,73.98223775,,,
7.1,221,44.75860617,,,
7.104,222,14.44837952,,,
7.108,222,23.51227782,,,
7.112,222,-2.221141723,,,
7.116,222,-14.49205153,,,
7.12,222,39.89737446,,,
7.124,222,75.93699419,,,
7.128,222,98.22645289,,,
7.132,222,100.9441082,,,
7.136,223,53.84628597,,,
7.14,223,-8.069336379,,,
7.144,223,-30.56824086,,,
7.148,223,10.16538693,,,
7.152,223,50.85456475,,,
7.156,223,44.11625168,,,
7.16,223,35.25181147,,,
7.164,223,72.00347279,,,
7.168,224,92.62864163,,,
7.172,224,46.8485192,,,
7.176,224,-1.672220031,,,
7.18,224,-26.17380797,,,
7.184,224,-30.3106438,,,
7.188,224,32.74729477,,,
7.192,224,95.08267536,,,
7.196,224,91.1349484,,,
7.2,225,74.81381779,,,
7.204,225,48.10970187,,,
7.208,225,35.1985593,,,
7.212,225,57.72611738,,,
7.216,225,53.73312112,,,
7.22,225,27.30372243,,,
7.224,225,44.08401487,,,
7.228,225,81.19184046,,,
7.232,226,65.3486614,,,
7.236,226,25.1222358,,,
7.24,226,41.26060922,,,
7.244,226,74.58422089,,,
7.248,226,81.34088745,,,
7.252,226,93.57903391,,,
7.256,226,86.99122304,,,
7.26,226,51.94377333,,,
7.264,227,49.42342818,,,
7.268,227,65.27236699,,,
7.272,227,41.8097406,,,
7.276,227,40.59586394,,,
7.28,227,74.58744468,,,
7.284,227,49.39599911,,,
7.288,227,-7.979517366,,,
7.292,227,-28.39509028,,,
7.296,228,-8.439188723,,,
7.3,228,45.72091346,,,
7.304,228,78.40351206,,,
7.308,228,51.77023648,,,
7.312,228,31.08065729,,,
7.316,228,32.12312506,,,
7.32,228,39.96351477,,,
7.324,228,56.10868885,,,
7.328,229,43.68606602,,,
7.332,229,13.67394154,,,
7.336,229,-2.703369726,,,
7.34,229,8.663232226,,,
7.344,229,38.03447999,,,
7.348,229,37.64428376,,,
7.352,229,16.26437781,,,
7.356,229,28.62501469,,,
7.36,230,69.02692212,,,
7.364,230,68.28486167,,,
7.368,230,37.81567949,,,
7.372,230,38.21193548,,,
7.376,230,27.49805682,,,
7.38,230,5.146639475,,,
7.384,230,15.12169726,,,
7.388,230,18.75621517,,,
7.392,231,-1.618594744,,,
7.396,231,9.791562949,,,
7.4,231,37.96795188,,,
7.404,231,22.62331418,,,
7.408,231,-11.24113415,,,
7.412,231,-17.78235884,,,
7.416,231,-23.01511739,,,
7.42,231,-31.53647999,,,
7.424,232,25.84850704,,,
7.428,232,80.12639626,,,
7.432,232,62.84257158,,,
7.436,232,45.58041324,,,
7.44,232,20.98880777,,,
7.444,232,3.694323535,,,
7.448,232,25.76348283,,,
7.452,232,32.19349345,,,
7.456,233,27.1797223,,,
7.46,233,13.33081435,,,
7.464,233,-13.7645319,,,
7.468,233,-15.02619881,,,
7.472,233,13.51127202,,,
7.476,233,28.49804835,,,
7.48,233,16.22342225,,,
7.484,233,11.78761252,,,
7.488,234,-0.511875835,,,
7.492,234,-9.359421596,,,
7.496,234,9.459477958,,,
7.5,234,17.86923316,,,
7.504,234,16.8049835,,,
7.508,234,18.4613868,,,
7.512,234,14.03486757,,,
7.516,234,11.0307857,,,
7.52,235,28.64000552,,,
7.524,235,61.14413751,,,
7.528,235,69.48574728,,,
7.532,235,73.56499461,,,
7.536,235,57.47008246,,,
7.54,235,12.33770572,,,
7.544,235,15.59991809,,,
7.548,235,42.72948133,,,
7.552,236,81.6843504,,,
7.556,236,122.9924186,,,
7.56,236,99.16510855,,,
7.564,236,49.53707134,,,
7.568,236,20.00561812,,,
7.572,236,13.07944196,,,
7.576,236,26.38747544,,,
7.58,236,45.82532657,,,
7.584,237,47.89722978,,,
7.588,237,30.17882434,,,
7.592,237,39.41797551,,,
7.596,237,64.86401031,,,
7.6,237,69.20766971,,,
7.604,237,65.80827868,,,
7.608,237,37.41180709,,,
7.612,237,-3.177325854,,,
7.616,238,-1.078469675,,,
7.62,238,25.42587967,,,
7.624,238,51.42942598,,,
7.628,238,65.42533282,,,
7.632,238,45.73953563,,,
7.636,238,36.20079399,,,
7.64,238,44.49307153,,,
7.644,238,37.33707878,,,
7.648,239,50.66699666,,,
7.652,239,83.72271497,,,
7.656,239,63.86889867,,,
7.66,239,20.46217079,,,
7.664,239,19.84802423,,,
7.668,239,14.83522988,,,
7.672,239,7.333074491,,,
7.676,239,32.11913458,,,
7.68,240,56.54081363,,,
7.684,240,59.8945337,,,
7.688,240,55.33239818,,,
7.692,240,47.73909263,,,
7.696,240,34.24636282,,,
7.7,240,25.06386546,,,
7.704,240,5.977074862,,,
7.708,240,-2.092827509,,,
7.712,241,33.15204874,,,
7.716,241,42.08472731,,,
7.72,241,36.3973822,,,
7.724,241,66.48749192,,,
7.728,241,62.73807299,,,
7.732,241,44.42764006,,,
7.736,241,72.55927509,,,
7.74,241,77.75485482,,,
7.744,242,27.96953083,,,
7.748,242,-8.791630483,,,
7.752,242,-10.10596129,,,
7.756,242,-2.869764806,,,
7.76,242,13.80717313,,,
7.764,242,25.83038764,,,
7.768,242,34.49307684,,,
7.772,242,47.45513769,,,
7.776,243,38.69078449,,,
7.78,243,35.17429675,,,
7.784,243,52.6848758,,,
7.788,243,59.47031852,,,
7.792,243,41.96299632,,,
7.796,243,29.6751008,,,
7.8,243,45.48365132,,,
7.804,243,68.08127964,,,
7.808,244,81.327306,,,
7.812,244,71.3648692,,,
7.816,244,41.8026646,,,
7.82,244,24.13408099,,,
7.824,244,30.69958998,,,
7.828,244,37.9368558,,,
7.832,244,15.52931877,,,
7.836,244,-9.89111295,,,
7.84,245,-2.661641126,,,
7.844,245,21.49669126,,,
7.848,245,41.44051363,,,
7.852,245,54.63982667,,,
7.856,245,50.47973745,,,
7.86,245,20.90708259,,,
7.864,245,21.61624544,,,
7.868,245,54.77724337,,,
7.872,246,68.23027104,,,
7.876,246,76.49616327,,,
7.88,246,66.81236685,,,
7.884,246,25.56650756,,,
7.888,246,11.72678993,,,
7.892,246,23.03095065,,,
7.896,246,8.115655947,,,
7.9,246,6.543419057,,,
7.904,247,33.68906656,,,
7.908,247,43.73425046,,,
7.912,247,46.76667507,,,
7.916,247,51.01056276,,,
7.92,247,30.63527343,,,
7.924,247,-9.212170428,,,
7.928,247,-24.63787924,,,
7.932,247,-9.351054538,,,
7.936,248,3.94850279,,,
7.94,248,22.36875073,,,
7.944,248,59.05743683,,,
7.948,248,73.72587983,,,
7.952,248,62.39223583,,,
7.956,248,43.43166223,,,
7.96,248,27.38666387,,,
7.964,248,59.88600573,,,
7.968,249,116.8128322,,,
7.972,249,138.4834754,,,
7.976,249,116.1210401,,,
7.98,249,89.00317123,,,
7.984,249,72.64922061,,,
7.988,249,71.14442925,,,
7.992,249,89.32030267,,,
7.996,249,65.13559843,,,
8,250,25.4575667,,,
8.004,250,56.09739164,,,
8.008,250,100.8490513,,,
8.012,250,97.5929908,,,
8.016,250,87.69308375,,,
8.02,250,76.39438955,,,
8.024,250,56.27286904,,,
8.028,250,54.98992664,,,
8.032,251,37.80344033,,,
8.036,251,14.16700415,,,
8.04,251,18.93249288,,,
8.044,251,16.2853843,,,
8.048,251,25.2346996,,,
8.052,251,66.34148814,,,
8.056,251,93.77570217,,,
8.06,251,89.61092713,,,
8.064,252,62.42026557,,,
8.068,252,31.50698902,,,
8.072,252,26.58878614,,,
8.076,252,40.87428419,,,
8.08,252,48.82163312,,,
8.084,252,40.48025403,,,
8.088,252,22.76941815,,,
8.092,252,5.431406918,,,
8.096,253,7.97499106,,,
8.1,253,41.0010817,,,
8.104,253,59.51984162,,,
8.108,253,49.66626011,,,
8.112,253,34.82909257,,,
8.116,253,7.277585082,,,
8.12,253,2.883280558,,,
8.124,253,35.08537941,,,
8.128,254,47.03142778,,,
8.132,254,52.82198921,,,
8.136,254,64.48185743,,,
8.14,254,56.71450982,,,
8.144,254,56.43986827,,,
8.148,254,58.1203997,,,
8.152,254,58.09899462,,,
8.156,254,49.06568999,,,
8.16,255,9.766587471,,,
8.164,255,-9.196191771,,,
8.168,255,3.90142086,,,
8.172,255,10.82775045,,,
8.176,255,26.15485172,,,
8.18,255,39.6264793,,,
8.184,255,17.39039272,,,
8.188,255,-5.240376607,,,
8.192,256,-18.19770927,,,
8.196,256,-2.486920364,,,
8.2,256,51.00689081,,,
8.204,256,54.61760449,,,
8.208,256,26.79972495,,,
8.212,256,40.02148704,,,
8.216,256,57.49126924,,,
8.22,256,50.14181141,,,
8.224,257,45.19467662,,,
8.228,257,36.39865928,,,
8.232,257,31.24326786,,,
8.236,257,60.05853454,,,
8.24,257,85.87725904,,,
8.244,257,82.5114594,,,
8.248,257,72.74037595,,,
8.252,257,57.88747767,,,
8.256,258,47.21105027,,,
8.26,258,53.17074025,,,
8.264,258,43.28680658,,,
8.268,258,1.372857376,,,
8.272,258,-35.48927044,,,
8.276,258,-0.567593717,,,
8.28,258,73.72549614,,,
8.284,258,99.84631672,,,
8.288,259,98.80668339,,,
8.292,259,82.05092744,,,
8.296,259,35.96353385,,,
8.3,259,10.41911005,,,
8.304,259,26.17231791,,,
8.308,259,44.44031845,,,
8.312,259,39.28525882,,,
8.316,259,31.66267314,,,
8.32,260,40.29472258,,,
8.324,260,50.60439849,,,
8.328,260,42.73313176,,,
8.332,260,24.64176472,,,
8.336,260,36.17045424,,,
8.34,260,71.60118146,,,
8.344,260,66.92379205,,,
8.348,260,30.80063691,,,
8.352,261,24.83039634,,,
8.356,261,42.31361725,,,
8.36,261,49.10039471,,,
8.364,261,52.83005405,,,
8.368,261,56.024758,,,
8.372,261,53.9436658,,,
8.376,261,68.60645238,,,
8.38,261,84.2238922,,,
8.384,262,76.26069525,,,
8.388,262,62.16783062,,,
8.392,262,36.33107066,,,
8.396,262,11.85323972,,,
8.4,262,21.29131639,,,
8.404,262,38.66754972,,,
8.408,262,47.61192161,,,
8.412,262,52.60486364,,,
8.416,263,39.18579457,,,
8.42,263,20.20357553,,,
8.424,263,11.76606972,,,
8.428,263,13.79099857,,,
8.432,263,38.97762602,,,
8.436,263,60.60279412,,,
8.44,263,72.58162231,,,
8.444,263,81.50332414,,,
8.448,264,62.09430079,,,
8.452,264,41.00626502,,,
8.456,264,41.15740929,,,
8.46,264,36.72530195,,,
8.464,264,17.31706899,,,
8.468,264,18.19663345,,,
8.472,264,37.52973603,,,
8.476,264,30.16616785,,,
8.48,265,15.04838033,,,
8.484,265,31.88031267,,,
8.488,265,56.90612251,,,
8.492,265,48.21006863,,,
8.496,265,21.54630603,,,
8.5,265,18.08816569,,,
8.504,265,23.72241108,,,
8.508,265,35.54471055,,,
8.512,266,68.7503423,,,
8.516,266,80.70250705,,,
8.52,266,50.30418916,,,
8.524,266,21.55145862,,,
8.528,266,21.14291143,,,
8.532,266,29.86151624,,,
8.536,266,53.85529595,,,
8.54,266,79.9142159,,,
8.544,267,72.82187939,,,
8.548,267,66.9454135,,,
8.552,267,83.77209382,,,
8.556,267,101.8326553,,,
8.56,267,98.69629188,,,
8.564,267,58.56669385,,,
8.568,267,25.32702493,,,
8.572,267,32.67663835,,,
8.576,268,44.08446777,,,
8.58,268,34.73553856,,,
8.584,268,13.55717538,,,
8.588,268,-1.024118701,,,
8.592,268,10.25589989,,,
8.596,268,60.04294938,,,
8.6,268,80.37915508,,,
8.604,268,38.30596884,,,
8.608,269,22.73910901,,,
8.612,269,36.88651554,,,
8.616,269,52.84527525,,,
8.62,269,60.3985974,,,
8.624,269,44.77712999,,,
8.628,269,25.19832172,,,
8.632,269,8.308331889,,,
8.636,269,15.99928261,,,
8.64,270,47.82146097,,,
8.644,270,50.36395338,,,
8.648,270,11.51945799,,,
8.652,270,6.876647015,,,
8.656,270,52.86252502,,,
8.66,270,62.94386754,,,
8.664,270,34.03636917,,,
8.668,270,33.27420184,,,
8.672,271,43.86498845,,,
8.676,271,52.16970697,,,
8.68,271,76.41045678,,,
8.684,271,78.82988237,,,
8.688,271,61.0784902,,,
8.692,271,37.2545245,,,
8.696,271,13.35959458,,,
8.7,271,20.71699952,,,
8.704,272,36.34424564,,,
8.708,272,39.69086223,,,
8.712,272,44.97684404,,,
8.716,272,66.18517422,,,
8.72,272,84.76299226,,,
8.724,272,72.67304103,,,
8.728,272,31.99726181,,,
8.732,272,5.617466205,,,
8.736,273,16.30874117,,,
8.74,273,30.03665393,,,
8.744,273,27.79523328,,,
8.748,273,26.28335616,,,
8.752,273,30.31489473,,,
8.756,273,17.52546726,,,
8.76,273,4.354629408,,,
8.764,273,0.650680008,,,
8.768,274,0.604394791,,,
8.772,274,6.475635158,,,
8.776,274,9.116211832,,,
8.78,274,13.96052834,,,
8.784,274,25.43933944,,,
8.788,274,40.14332418,,,
8.792,274,65.36836569,,,
8.796,274,81.78345273,,,
8.8,275,89.14399,,,
8.804,275,120.1702169,,,
8.808,275,152.6627037,,,
8.812,275,182.0121914,,,
8.816,275,219.850195,,,
8.82,275,246.6712271,,,
8.824,275,284.5287218,,,
8.828,275,357.5328571,,,
8.832,276,427.1838473,,,
8.836,276,443.0577416,,,
8.84,276,416.1714201,,,
8.844,276,370.5296428,,,
8.848,276,328.1592749,,,
8.852,276,296.9713521,,,
8.856,276,221.0645837,,,
8.86,276,142.4190165,,,
8.864,277,125.5655986,,,
8.868,277,81.78424862,,,
8.872,277,14.57869395,,,
8.876,277,-37.55881897,,,
8.88,277,-104.5713436,,,
8.884,277,-126.8004907,,,
8.888,277,-132.5796541,,,
8.892,277,-181.0939959,,,
8.896,278,-197.2819009,,,
8.9,278,-194.0453701,,,
8.904,278,-215.9487661,,,
8.908,278,-202.0970422,,,
8.912,278,-176.2347421,,,
8.916,278,-194.809496,,,
8.92,278,-210.329995,,,
8.924,278,-220.0275172,,,
8.928,279,-227.5149057,,,
8.932,279,-193.2476765,,,
8.936,279,-138.9042039,,,
8.94,279,-109.0967875,,,
8.944,279,-128.5725771,,,
8.948,279,-168.6091188,,,
8.952,279,-172.9424692,,,
8.956,279,-144.3974051,,,
8.96,280,-115.9993473,,,
8.964,280,-101.8324082,,,
8.968,280,-101.1088946,,,
8.972,280,-110.0545787,,,
8.976,280,-113.6590115,,,
8.98,280,-87.45691659,,,
8.984,280,-49.16003864,,,
8.988,280,-20.09350932,,,
8.992,281,2.182505318,,,
8.996,281,2.603968233,,,
9,281,-28.15300069,,,
9.004,281,-55.01861147,,,
9.008,281,-6.498058994,,,
9.012,281,57.9124788,,,
9.016,281,48.84869738,,,
9.02,281,42.60365771,,,
9.024,282,55.51318819,,,
9.028,282,48.54531681,,,
9.032,282,53.08334566,,,
9.036,282,54.09698577,,,
9.04,282,29.38329645,,,
9.044,282,12.47627901,,,
9.048,282,31.72231654,,,
9.052,282,62.15977943,,,
9.056,283,62.33214774,,,
9.06,283,44.73606236,,,
9.064,283,28.72737385,,,
9.068,283,20.39920383,,,
9.072,283,40.20751592,,,
9.076,283,55.74159105,,,
9.08,283,44.91796828,,,
9.084,283,40.97482945,,,
9.088,284,40.78854943,,,
9.092,284,30.89893756,,,
9.096,284,28.78631381,,,
9.1,284,32.77307781,,,
9.104,284,32.61985399,,,
9.108,284,52.74976427,,,
9.112,284,89.25598083,,,
9.116,284,110.3440345,,,
9.12,285,111.9295646,,,
9.124,285,101.1657554,,,
9.128,285,82.12260663,,,
9.132,285,70.08940728,,,
9.136,285,88.03419219,,,
9.14,285,118.4569448,,,
9.144,285,107.0235051,,,
9.148,285,55.35428751,,,
9.152,286,32.65594745,,,
9.156,286,23.90459759,,,
9.16,286,27.28941449,,,
9.164,286,74.2478633,,,
9.168,286,81.75230862,,,
9.172,286,61.42352571,,,
9.176,286,70.37027117,,,
9.18,286,81.55797764,,,
9.184,287,103.5658586,,,
9.188,287,117.3035867,,,
9.192,287,105.6162108,,,
9.196,287,81.66505559,,,
9.2,287,43.68681229,,,
9.204,287,38.70911938,,,
9.208,287,64.57433351,,,
9.212,287,68.18857238,,,
9.216,288,50.04438531,,,
9.22,288,21.73467285,,,
9.224,288,7.423593006,,,
9.228,288,32.77673628,,,
9.232,288,68.27305775,,,
9.236,288,75.31529237,,,
9.24,288,66.62679577,,,
9.244,288,63.2231624,,,
9.248,289,80.00044191,,,
9.252,289,111.7563694,,,
9.256,289,110.7053147,,,
9.26,289,91.40375008,,,
9.264,289,88.06237673,,,
9.268,289,79.40905842,,,
9.272,289,78.70604594,,,
9.276,289,91.91769155,,,
9.28,290,93.10401445,,,
9.284,290,103.2533785,,,
9.288,290,116.7763009,,,
9.292,290,94.68184571,,,
9.296,290,67.63487342,,,
9.3,290,66.71619588,,,
9.304,290,83.33052759,,,
9.308,290,89.46553821,,,
9.312,291,80.46467785,,,
9.316,291,73.63938832,,,
9.32,291,53.59182996,,,
9.324,291,27.50977092,,,
9.328,291,20.48475146,,,
9.332,291,35.69970296,,,
9.336,291,49.70790483,,,
9.34,291,51.99278413,,,
9.344,292,52.34737445,,,
9.348,292,48.24397158,,,
9.352,292,61.0833636,,,
9.356,292,70.90913803,,,
9.36,292,43.17834394,,,
9.364,292,20.5478229,,,
9.368,292,25.82186067,,,
9.372,292,20.14169363,,,
9.376,293,7.58438004,,,
9.38,293,2.215516248,,,
9.384,293,-4.413274911,,,
9.388,293,14.74636797,,,
9.392,293,44.75162736,,,
9.396,293,48.82723113,,,
9.4,293,36.99312525,,,
9.404,293,29.15620849,,,
9.408,294,38.68243155,,,
9.412,294,44.36320599,,,
9.416,294,17.10856059,,,
9.42,294,-16.82357921,,,
9.424,294,-26.71144494,,,
9.428,294,-12.46887018,,,
9.432,294,26.00234392,,,
9.436,294,61.91430532,,,
9.44,295,71.23460459,,,
9.444,295,66.42283161,,,
9.448,295,47.97231657,,,
9.452,295,39.76701932,,,
9.456,295,44.86921641,,,
9.46,295,34.67112406,,,
9.464,295,30.90960259,,,
9.468,295,39.49071371,,,
9.472,296,34.98305405,,,
9.476,296,46.83089693,,,
9.48,296,77.18435501,,,
9.484,296,62.71002405,,,
9.488,296,32.93749259,,,
9.492,296,15.38396471,,,
9.496,296,-3.728432215,,,
9.5,296,9.618098969,,,
9.504,297,46.04848525,,,
9.508,297,59.06298098,,,
9.512,297,39.40823581,,,
9.516,297,29.094999,,,
9.52,297,36.19382814,,,
9.524,297,26.74867293,,,
9.528,297,40.60611812,,,
9.532,297,72.30519432,,,
9.536,298,52.3860922,,,
9.54,298,16.25272969,,,
9.544,298,17.43907478,,,
9.548,298,33.2934354,,,
9.552,298,25.90156368,,,
9.556,298,20.16212642,,,
9.56,298,50.42958067,,,
9.564,298,65.03221572,,,
9.568,299,52.63208556,,,
9.572,299,62.93292571,,,
9.576,299,69.74032645,,,
9.58,299,41.68151448,,,
9.584,299,14.33769164,,,
9.588,299,16.48762762,,,
9.592,299,21.27053988,,,
9.596,299,9.235328976,,,
9.6,300,20.87032049,,,
9.604,300,43.99768473,,,
9.608,300,28.8582507,,,
9.612,300,18.26789121,,,
9.616,300,44.1008012,,,
9.62,300,53.19294519,,,
9.624,300,45.82121878,,,
9.628,300,35.92461328,,,
9.632,301,8.167161648,,,
9.636,301,12.33028691,,,
9.64,301,57.30173813,,,
9.644,301,77.49196575,,,
9.648,301,58.87780722,,,
9.652,301,25.55100318,,,
9.656,301,7.288824372,,,
9.66,301,17.21709171,,,
9.664,302,29.57595787,,,
9.668,302,43.65399722,,,
9.672,302,48.32976302,,,
9.676,302,42.40447646,,,
9.68,302,58.22104421,,,
9.684,302,84.69225875,,,
9.688,302,76.16051772,,,
9.692,302,34.80258167,,,
9.696,303,15.938148,,,
9.7,303,30.54049924,,,
9.704,303,48.61680204,,,
9.708,303,45.2945702,,,
9.712,303,38.96057205,,,
9.716,303,50.99756106,,,
9.72,303,61.84560459,,,
9.724,303,36.47585019,,,
9.728,304,1.270157613,,,
9.732,304,19.86179354,,,
9.736,304,68.77361196,,,
9.74,304,74.45880956,,,
9.744,304,44.28466824,,,
9.748,304,35.10341426,,,
9.752,304,15.94898502,,,
9.756,304,-7.928549489,,,
9.76,305,6.464017096,,,
9.764,305,15.97691522,,,
9.768,305,7.066852379,,,
9.772,305,13.72320178,,,
9.776,305,38.45083518,,,
9.78,305,55.50951005,,,
9.784,305,50.3172983,,,
9.788,305,41.9938851,,,
9.792,306,31.60595946,,,
9.796,306,9.187178975,,,
9.8,306,9.125946746,,,
9.804,306,24.00898346,,,
9.808,306,11.19368811,,,
9.812,306,-6.790832661,,,
9.816,306,-6.404913993,,,
9.82,306,10.86079757,,,
9.824,307,29.5299838,,,
9.828,307,45.66819676,,,
9.832,307,65.42743452,,,
9.836,307,70.04280084,,,
9.84,307,60.35927896,,,
9.844,307,64.14645593,,,
9.848,307,78.46183231,,,
9.852,307,61.79457122,,,
9.856,308,21.19919303,,,
9.86,308,2.653009177,,,
9.864,308,6.956739719,,,
9.868,308,20.19867162,,,
9.872,308,51.85540262,,,
9.876,308,82.35666621,,,
9.88,308,78.76592953,,,
9.884,308,43.40779497,,,
9.888,309,12.62882764,,,
9.892,309,-2.289521238,,,
9.896,309,-14.15945381,,,
9.9,309,-11.27941019,,,
9.904,309,3.41696646,,,
9.908,309,3.932172614,,,
9.912,309,-8.286242826,,,
9.916,309,-10.55307355,,,
9.92,310,4.270350951,,,
9.924,310,16.53763464,,,
9.928,310,25.27864879,,,
9.932,310,43.16534551,,,
9.936,310,57.00985314,,,
9.94,310,53.9197744,,,
9.944,310,54.34710342,,,
9.948,310,68.84483002,,,
9.952,311,72.84525871,,,
9.956,311,71.739333,,,
9.96,311,68.46054498,,,
9.964,311,58.7708968,,,
9.968,311,73.97676108,,,
9.972,311,92.48776755,,,
9.976,311,73.3334539,,,
9.98,311,58.87527322,,,
9.984,312,60.84519668,,,
9.988,312,41.22138527,,,
9.992,312,20.06382158,,,
9.996,312,23.29082829,,,
10,312,47.11548283,,,
10.004,312,64.65710197,,,
10.008,312,53.20722141,,,
10.012,312,43.62096422,,,
10.016,313,44.2093966,,,
10.02,313,39.6350855,,,
10.024,313,24.6970355,,,
10.028,313,4.84584298,,,
10.032,313,0.74536801,,,
10.036,313,-4.604855605,,,
10.04,313,-7.774982536,,,
10.044,313,29.24487816,,,
10.048,314,83.7935148,,,
10.052,314,106.8450669,,,
10.056,314,87.4940871,,,
10.06,314,48.56271103,,,
10.064,314,33.92088414,,,
10.068,314,71.43094968,,,
10.072,314,100.5736319,,,
10.076,314,69.35297139,,,
10.08,315,32.7188674,,,
10.084,315,18.40523997,,,
10.088,315,11.02452469,,,
10.092,315,24.06030787,,,
10.096,315,34.35096588,,,
10.1,315,15.84942198,,,
10.104,315,1.357768019,,,
10.108,315,-3.979085322,,,
10.112,316,-0.298562997,,,
10.116,316,12.01687064,,,
10.12,316,16.27874627,,,
10.124,316,31.29046122,,,
10.128,316,39.93950413,,,
10.132,316,27.84864627,,,
10.136,316,28.69939599,,,
10.14,316,27.18225841,,,
10.144,317,16.08950862,,,
10.148,317,34.26087856,,,
10.152,317,79.32699688,,,
10.156,317,89.97428314,,,
10.16,317,54.37304458,,,
10.164,317,44.44365939,,,
10.168,317,62.5243351,,,
10.172,317,57.86849867,,,
10.176,318,52.16872491,,,
10.18,318,63.18376296,,,
10.184,318,52.04615231,,,
10.188,318,29.46796085,,,
10.192,318,31.3061422,,,
10.196,318,22.29183542,,,
10.2,318,-14.96163507,,,
10.204,318,-34.51452031,,,
10.208,319,-15.38462781,,,
10.212,319,4.121756736,,,
10.216,319,1.572090302,,,
10.22,319,2.891229543,,,
10.224,319,24.42408551,,,
10.228,319,44.3991743,,,
10.232,319,38.05072953,,,
10.236,319,38.17049338,,,
10.24,320,52.02078051,,,
10.244,320,50.17359249,,,
10.248,320,61.02156428,,,
10.252,320,72.29305113,,,
10.256,320,62.58397354,,,
10.26,320,67.12852755,,,
10.264,320,85.0551137,,,
10.268,320,81.70118308,,,
10.272,321,71.44219653,,,
10.276,321,74.96852048,,,
10.28,321,65.36726731,,,
10.284,321,42.71982483,,,
10.288,321,37.15447587,,,
10.292,321,61.16854415,,,
10.296,321,98.53557708,,,
10.3,321,124.6289618,,,
10.304,322,123.861555,,,
10.308,322,103.2678103,,,
10.312,322,79.1179791,,,
10.316,322,71.2573468,,,
10.32,322,100.0876121,,,
10.324,322,136.6540078,,,
10.328,322,129.1094037,,,
10.332,322,99.19072019,,,
10.336,323,89.91430009,,,
10.34,323,84.39276971,,,
10.344,323,62.9169658,,,
10.348,323,40.11975694,,,
10.352,323,39.10806818,,,
10.356,323,54.78228929,,,
10.36,323,45.72597447,,,
10.364,323,22.20518258,,,
10.368,324,40.10359639,,,
10.372,324,61.54478894,,,
10.376,324,72.60533016,,,
10.38,324,109.2333863,,,
10.384,324,103.9053028,,,
10.388,324,44.77324733,,,
10.392,324,25.48923764,,,
10.396,324,48.49097205,,,
10.4,325,43.98303923,,,
10.404,325,23.98191778,,,
10.408,325,18.42480715,,,
10.412,325,7.156914804,,,
10.416,325,0.34542397,,,
10.42,325,7.514819482,,,
10.424,325,10.76343032,,,
10.428,325,9.668319121,,,
10.432,326,11.82919284,,,
10.436,326,27.23890351,,,
10.44,326,56.61715707,,,
10.444,326,84.01487374,,,
10.448,326,89.58181983,,,
10.452,326,52.43340907,,,
10.456,326,8.486091854,,,
10.46,326,16.84587914,,,
10.464,327,35.13000895,,,
10.468,327,32.5415179,,,
10.472,327,49.7412688,,,
10.476,327,50.06641698,,,
10.48,327,39.85327233,,,
10.484,327,50.8771123,,,
10.488,327,37.85798695,,,
10.492,327,22.99045559,,,
10.496,328,36.2744952,,,
10.5,328,44.93124313,,,
10.504,328,25.65103768,,,
10.508,328,4.685731701,,,
10.512,328,1.038995352,,,
10.516,328,6.105765549,,,
10.52,328,23.10756243,,,
10.524,328,39.66742164,,,
10.528,329,39.64341255,,,
10.532,329,28.89137281,,,
10.536,329,22.58720237,,,
10.54,329,29.26088688,,,
10.544,329,25.89251804,,,
10.548,329,9.996220847,,,
10.552,329,11.47044859,,,
10.556,329,13.51173201,,,
10.56,330,3.680940583,,,
10.564,330,-0.368800737,,,
10.568,330,8.273806851,,,
10.572,330,24.96631937,,,
10.576,330,40.20595603,,,
10.58,330,64.39589439,,,
10.584,330,88.91656375,,,
10.588,330,69.17077191,,,
10.592,331,48.12059614,,,
10.596,331,60.81392183,,,
10.6,331,35.67565098,,,
10.604,331,3.310208129,,,
10.608,331,23.65475479,,,
10.612,331,46.95848796,,,
10.616,331,34.44538293,,,
10.62,331,15.41533201,,,
10.624,332,18.66460195,,,
10.628,332,30.58822605,,,
10.632,332,35.21747257,,,
10.636,332,51.17039442,,,
10.64,332,70.40563777,,,
10.644,332,49.86355725,,,
10.648,332,19.78647529,,,
10.652,332,19.13838119,,,
10.656,333,25.44442374,,,
10.66,333,23.84659891,,,
10.664,333,19.55411906,,,
10.668,333,11.88503506,,,
10.672,333,13.49254796,,,
10.676,333,33.0934937,,,
10.68,333,30.74175266,,,
10.684,333,21.30142984,,,
10.688,334,39.82701568,,,
10.692,334,50.61843949,,,
10.696,334,56.7565577,,,
10.7,334,75.12897803,,,
10.704,334,88.04241825,,,
10.708,334,77.63382403,,,
10.712,334,55.73716379,,,
10.716,334,22.07735097,,,
10.72,335,-11.84027803,,,
10.724,335,-8.785391909,,,
10.728,335,0.580311209,,,
10.732,335,4.726323843,,,
10.736,335,8.147305674,,,
10.74,335,-4.472743435,,,
10.744,335,13.15649736,,,
10.748,335,52.9959233,,,
10.752,336,56.25577023,,,
10.756,336,29.71948084,,,
10.76,336,12.68457187,,,
10.764,336,30.75624709,,,
10.768,336,50.59993511,,,
10.772,336,61.12708828,,,
10.776,336,82.74793527,,,
10.78,336,81.15489421,,,
10.784,337,60.63024486,,,
10.788,337,55.94627773,,,
10.792,337,48.50014068,,,
10.796,337,32.93060467,,,
10.8,337,11.67583637,,,
10.804,337,-7.471847686,,,
10.808,337,14.98771079,,,
10.812,337,45.3701786,,,
10.816,338,34.65273056,,,
10.82,338,18.84700929,,,
10.824,338,18.67371191,,,
10.828,338,25.18117374,,,
10.832,338,42.84039059,,,
10.836,338,44.79982694,,,
10.84,338,22.42179915,,,
10.844,338,29.72022639,,,
10.848,339,56.25940917,,,
10.852,339,72.89370082,,,
10.856,339,86.32096467,,,
10.86,339,64.39596186,,,
10.864,339,37.86846181,,,
10.868,339,60.68272849,,,
10.872,339,78.2818969,,,
10.876,339,64.03851848,,,
10.88,340,50.94593265,,,
10.884,340,29.31598144,,,
10.888,340,26.81690773,,,
10.892,340,37.0584964,,,
10.896,340,2.247400125,,,
10.9,340,-16.13099388,,,
10.904,340,-0.995680233,,,
10.908,340,3.25870046,,,
10.912,341,14.2957063,,,
10.916,341,14.78170588,,,
10.92,341,-6.337584326,,,
10.924,341,0.283417053,,,
10.928,341,28.31533096,,,
10.932,341,34.93140095,,,
10.936,341,38.150074,,,
10.94,341,32.74347265,,,
10.944,342,26.4152633,,,
10.948,342,54.22946704,,,
10.952,342,54.27016621,,,
10.956,342,20.17003557,,,
10.96,342,37.22569622,,,
10.964,342,62.71775281,,,
10.968,342,47.76764991,,,
10.972,342,55.28583865,,,
10.976,343,63.89092323,,,
10.98,343,34.94494694,,,
10.984,343,16.21840405,,,
10.988,343,14.47012761,,,
10.992,343,5.55555868,,,
10.996,343,0.291227466,,,
11,343,24.87221267,,,
11.004,343,49.9248094,,,
11.008,344,21.32739099,,,
11.012,344,-19.57325912,,,
11.016,344,-9.66105399,,,
11.02,344,26.24625383,,,
11.024,344,60.93924692,,,
11.028,344,85.71165409,,,
11.032,344,69.5608835,,,
11.036,344,53.310436,,,
11.04,345,73.56112155,,,
11.044,345,78.0083182,,,
11.048,345,66.7347387,,,
11.052,345,63.86838312,,,
11.056,345,56.92800543,,,
11.06,345,33.06887445,,,
11.064,345,5.8219502,,,
11.068,345,1.567294065,,,
11.072,346,10.01746443,,,
11.076,346,27.15829821,,,
11.08,346,45.28840145,,,
11.084,346,62.40755666,,,
11.088,346,65.21264335,,,
11.092,346,34.86959593,,,
11.096,346,8.828109606,,,
11.1,346,-5.689966862,,,
11.104,347,-4.997172734,,,
11.108,347,23.3782067,,,
11.112,347,36.78239328,,,
11.116,347,39.00132154,,,
11.12,347,51.90386926,,,
11.124,347,68.3578642,,,
11.128,347,80.35377418,,,
11.132,347,70.30882484,,,
11.136,348,65.73886374,,,
11.14,348,75.97957744,,,
11.144,348,64.83173513,,,
11.148,348,36.1030778,,,
11.152,348,25.6709848,,,
11.156,348,39.59335937,,,
11.16,348,57.40560319,,,
11.164,348,64.31918646,,,
11.168,349,46.85063803,,,
11.172,349,29.50725625,,,
11.176,349,42.21168332,,,
11.18,349,55.63440796,,,
11.184,349,57.60624547,,,
11.188,349,58.71964644,,,
11.192,349,68.4849216,,,
11.196,349,64.13681173,,,
11.2,350,23.7819642,,,
11.204,350,6.574024456,,,
11.208,350,19.91286446,,,
11.212,350,11.73462098,,,
11.216,350,-5.604999382,,,
11.22,350,-23.14594146,,,
11.224,350,-41.16002874,,,
11.228,350,-28.98496835,,,
11.232,351,8.253255118,,,
11.236,351,28.99983006,,,
11.24,351,18.0629164,,,
11.244,351,-6.734294612,,,
11.248,351,-37.99644058,,,
11.252,351,-64.73994372,,,
11.256,351,-44.00918114,,,
11.26,351,6.20361139,,,
11.264,352,18.52407871,,,
11.268,352,24.56271772,,,
11.272,352,48.21584105,,,
11.276,352,28.67401684,,,
11.28,352,11.18172781,,,
11.284,352,24.92618781,,,
11.288,352,15.22367075,,,
11.292,352,17.33571548,,,
11.296,353,43.96638098,,,
11.3,353,75.3922972,,,
11.304,353,102.2148433,,,
11.308,353,102.1223891,,,
11.312,353,76.79750844,,,
11.316,353,51.48476078,,,
11.32,353,49.28278754,,,
11.324,353,64.54503956,,,
11.328,354,80.81287101,,,
11.332,354,75.28814084,,,
11.336,354,48.462083,,,
11.34,354,26.56315833,,,
11.344,354,22.98501268,,,
11.348,354,40.68882921,,,
11.352,354,74.68686239,,,
11.356,354,79.94976427,,,
11.36,355,54.56793724,,,
11.364,355,57.82525759,,,
11.368,355,62.56129135,,,
11.372,355,53.30373599,,,
11.376,355,53.68535936,,,
11.38,355,62.8130289,,,
11.384,355,71.73648158,,,
11.388,355,58.58292197,,,
11.392,356,52.74621996,,,
11.396,356,59.25090506,,,
11.4,356,59.48306968,,,
11.404,356,66.79842517,,,
11.408,356,81.77177083,,,
11.412,356,81.07421102,,,
11.416,356,69.4436966,,,
11.42,356,76.15521661,,,
11.424,357,72.26770281,,,
11.428,357,68.83744744,,,
11.432,357,75.80920787,,,
11.436,357,55.31033759,,,
11.44,357,54.5571693,,,
11.444,357,73.9980665,,,
11.448,357,57.43278649,,,
11.452,357,37.7736734,,,
11.456,358,31.24877263,,,
11.46,358,42.87740565,,,
11.464,358,81.10882706,,,
11.468,358,80.15409968,,,
11.472,358,30.56663436,,,
11.476,358,23.06566259,,,
11.48,358,62.71190101,,,
11.484,358,75.90740423,,,
11.488,359,74.49536948,,,
11.492,359,79.19107336,,,
11.496,359,77.88520482,,,
11.5,359,86.35865175,,,
11.504,359,102.4746938,,,
11.508,359,92.97045454,,,
11.512,359,73.9637443,,,
11.516,359,79.95050855,,,
11.52,360,87.90684801,,,
11.524,360,85.87775334,,,
11.528,360,82.39319789,,,
11.532,360,78.15270783,,,
11.536,360,70.14772723,,,
11.54,360,71.25104615,,,
11.544,360,86.42197184,,,
11.548,360,82.08871226,,,
11.552,361,55.89260022,,,
11.556,361,50.09182379,,,
11.56,361,68.71783967,,,
11.564,361,82.04762854,,,
11.568,361,63.38110045,,,
11.572,361,46.83831083,,,
11.576,361,69.15505036,,,
11.58,361,83.12913233,,,
11.584,362,59.76135238,,,
11.588,362,37.62241202,,,
11.592,362,44.0979123,,,
11.596,362,50.54545997,,,
11.6,362,51.93545774,,,
11.604,362,49.55514675,,,
11.608,362,39.64597922,,,
11.612,362,25.08393697,,,
11.616,363,18.76973844,,,
11.62,363,41.79336918,,,
11.624,363,41.39666036,,,
11.628,363,9.69293236,,,
11.632,363,27.68099293,,,
11.636,363,84.3610219,,,
11.64,363,87.46422001,,,
11.644,363,36.87484196,,,
11.648,364,3.852069301,,,
11.652,364,12.82429721,,,
11.656,364,43.79905741,,,
11.66,364,62.96724704,,,
11.664,364,77.47665056,,,
11.668,364,82.1634836,,,
11.672,364,62.35448601,,,
11.676,364,75.35690099,,,
11.68,365,98.60693015,,,
11.684,365,83.67802363,,,
11.688,365,94.70748401,,,
11.692,365,118.8973155,,,
11.696,365,94.82506031,,,
11.7,365,69.09188245,,,
11.704,365,68.14453901,,,
11.708,365,85.48460153,,,
11.712,366,108.9829597,,,
11.716,366,89.24375273,,,
11.72,366,50.19855478,,,
11.724,366,37.1857112,,,
11.728,366,42.6268235,,,
11.732,366,64.84958001,,,
11.736,366,64.15303207,,,
11.74,366,29.80298921,,,
11.744,367,20.08574514,,,
11.748,367,43.82109096,,,
11.752,367,65.95549389,,,
11.756,367,53.65966532,,,
11.76,367,10.35163885,,,
11.764,367,-6.368046559,,,
11.768,367,32.16534523,,,
11.772,367,61.70479069,,,
11.776,368,62.51044861,,,
11.78,368,72.29147305,,,
11.784,368,88.63217665,,,
11.788,368,89.8547633,,,
11.792,368,59.68847787,,,
11.796,368,25.60484865,,,
11.8,368,39.94736248,,,
11.804,368,81.34956253,,,
11.808,369,83.41083696,,,
11.812,369,62.05248021,,,
11.816,369,74.03723726,,,
11.82,369,109.2122451,,,
11.824,369,111.1310913,,,
11.828,369,75.71404515,,,
11.832,369,42.43468095,,,
11.836,369,40.60288839,,,
11.84,370,63.05933157,,,
11.844,370,83.62750886,,,
11.848,370,79.39894167,,,
11.852,370,40.63692035,,,
11.856,370,16.78754145,,,
11.86,370,43.43885574,,,
11.864,370,61.83244885,,,
11.868,370,38.2867059,,,
11.872,371,21.25732235,,,
11.876,371,19.71488499,,,
11.88,371,28.55446257,,,
11.884,371,47.00273607,,,
11.888,371,46.60044584,,,
11.892,371,48.87559828,,,
11.896,371,55.88751037,,,
11.9,371,49.96237943,,,
11.904,372,65.14281235,,,
11.908,372,90.27491883,,,
11.912,372,101.74131,,,
11.916,372,102.6319367,,,
11.92,372,66.8361671,,,
11.924,372,19.27794343,,,
11.928,372,17.63335905,,,
11.932,372,28.73755251,,,
11.936,373,19.03366327,,,
11.94,373,24.84521541,,,
11.944,373,20.4882447,,,
11.948,373,4.742049985,,,
11.952,373,24.79085972,,,
11.956,373,36.92097897,,,
11.96,373,24.49416948,,,
11.964,373,26.81228867,,,
11.968,374,39.81711224,,,
11.972,374,36.8077716,,,
11.976,374,30.73302033,,,
11.98,374,23.63181223,,,
11.984,374,18.40942338,,,
11.988,374,23.00079569,,,
11.992,374,35.09602244,,,
11.996,374,61.14364056,,,
12,375,70.94864321,,,
12.004,375,70.46206363,,,
12.008,375,85.83397899,,,
12.012,375,96.88666745,,,
12.016,375,97.95591339,,,
12.02,375,95.11084812,,,
12.024,375,89.68862834,,,
12.028,375,83.82317019,,,
12.032,376,85.99239526,,,
12.036,376,98.51944129,,,
12.04,376,104.0161619,,,
12.044,376,92.72628722,,,
12.048,376,69.69741687,,,
12.052,376,49.80142603,,,
12.056,376,45.30040613,,,
12.06,376,61.5620358,,,
12.064,377,54.44682106,,,
12.068,377,13.05645349,,,
12.072,377,-9.894027086,,,
12.076,377,-7.458267888,,,
12.08,377,21.25533954,,,
12.084,377,67.35009025,,,
12.088,377,84.77352335,,,
12.092,377,76.73207913,,,
12.096,378,84.40380547,,,
12.1,378,91.21168538,,,
12.104,378,67.54200368,,,
12.108,378,45.94313409,,,
12.112,378,37.85991426,,,
12.116,378,28.73717511,,,
12.12,378,38.58617473,,,
12.124,378,55.54553491,,,
12.128,379,58.02623914,,,
12.132,379,42.69237503,,,
12.136,379,39.18130457,,,
12.14,379,73.60005692,,,
12.144,379,83.69521844,,,
12.148,379,63.03688865,,,
12.152,379,53.27954719,,,
12.156,379,40.24464897,,,
12.16,380,38.32152811,,,
12.164,380,38.07692916,,,
12.168,380,8.820402493,,,
12.172,380,-28.2399589,,,
12.176,380,-33.09219595,,,
12.18,380,-13.08517576,,,
12.184,380,-15.976636,,,
12.188,380,-7.053541374,,,
12.192,381,34.1122306,,,
12.196,381,41.47917792,,,
12.2,381,37.49856603,,,
12.204,381,59.87163426,,,
12.208,381,63.42504893,,,
12.212,381,36.79350659,,,
12.216,381,5.414280365,,,
12.22,381,-10.73577881,,,
12.224,382,-7.960643398,,,
12.228,382,-2.927721918,,,
12.232,382,-4.4741011,,,
12.236,382,-0.76947821,,,
12.24,382,8.782925522,,,
12.244,382,9.872668455,,,
12.248,382,25.43918582,,,
12.252,382,48.79166539,,,
12.256,383,28.92754413,,,
12.26,383,8.751698178,,,
12.264,383,26.2638716,,,
12.268,383,40.28588106,,,
12.272,383,44.09608134,,,
12.276,383,26.41993865,,,
12.28,383,-5.891066895,,,
12.284,383,9.034795252,,,
12.288,384,38.99593397,,,
12.292,384,39.51349827,,,
12.296,384,62.00042824,,,
12.3,384,78.57623957,,,
12.304,384,60.58172215,,,
12.308,384,70.40057225,,,
12.312,384,83.53400023,,,
12.316,384,51.89040882,,,
12.32,385,16.58101274,,,
12.324,385,-5.167227905,,,
12.328,385,-20.77817735,,,
12.332,385,-12.98268535,,,
12.336,385,11.20608151,,,
12.34,385,23.9817682,,,
12.344,385,16.85072124,,,
12.348,385,23.09858371,,,
12.352,386,31.01446811,,,
12.356,386,8.142355244,,,
12.36,386,4.880543494,,,
12.364,386,21.02375515,,,
12.368,386,10.31146373,,,
12.372,386,2.286152547,,,
12.376,386,37.14444518,,,
12.38,386,62.73434132,,,
12.384,387,52.02764113,,,
12.388,387,50.00501948,,,
12.392,387,46.95469764,,,
12.396,387,54.5823569,,,
12.4,387,81.30176908,,,
12.404,387,85.22503807,,,
12.408,387,82.89741465,,,
12.412,387,75.85444281,,,
12.416,388,66.33341948,,,
12.42,388,77.46007827,,,
12.424,388,81.50953689,,,
12.428,388,73.22452907,,,
12.432,388,51.12502849,,,
12.436,388,25.59452389,,,
12.44,388,24.56697583,,,
12.444,388,40.56369938,,,
12.448,389,52.81082302,,,
12.452,389,54.87964242,,,
12.456,389,54.05347305,,,
12.46,389,49.90151051,,,
12.464,389,41.2915542,,,
12.468,389,24.93791015,,,
12.472,389,9.87294136,,,
12.476,389,20.34089495,,,
12.48,390,39.09287063,,,
12.484,390,52.58999262,,,
12.488,390,77.21656953,,,
12.492,390,90.77072222,,,
12.496,390,63.17765003,,,
12.5,390,52.62532018,,,
12.504,390,70.04025355,,,
12.508,390,51.17396869,,,
12.512,391,49.987965,,,
12.516,391,72.0701708,,,
12.52,391,57.34061858,,,
12.524,391,42.98533594,,,
12.528,391,33.93922628,,,
12.532,391,5.627622162,,,
12.536,391,4.426824448,,,
12.54,391,23.9849225,,,
12.544,392,9.064420575,,,
12.548,392,-1.137029812,,,
12.552,392,-1.889629099,,,
12.556,392,-12.08737357,,,
12.56,392,11.44476108,,,
12.564,392,61.27407018,,,
12.568,392,81.34161613,,,
12.572,392,52.93307612,,,
12.576,393,26.64111515,,,
12.58,393,29.82554896,,,
12.584,393,57.36712122,,,
12.588,393,94.2948631,,,
12.592,393,81.5289066,,,
12.596,393,53.76569325,,,
12.6,393,58.58063202,,,
12.604,393,37.07678507,,,
12.608,394,23.84480479,,,
12.612,394,60.82592228,,,
12.616,394,73.819763,,,
12.62,394,48.02077391,,,
12.624,394,23.7583797,,,
12.628,394,6.41778226,,,
12.632,394,-2.738487066,,,
12.636,394,4.808283385,,,
12.64,395,24.19832976,,,
12.644,395,37.32443914,,,
12.648,395,33.41157831,,,
12.652,395,16.04398812,,,
12.656,395,-2.824147675,,,
12.66,395,-10.22187552,,,
12.664,395,-7.739631101,,,
12.668,395,6.316835938,,,
12.672,396,24.72446799,,,
12.676,396,33.35834622,,,
12.68,396,28.96523167,,,
12.684,396,21.29570977,,,
12.688,396,22.14230964,,,
12.692,396,14.34051021,,,
12.696,396,7.583023108,,,
12.7,396,23.28287195,,,
12.704,397,44.00557901,,,
12.708,397,62.56714389,,,
12.712,397,59.99298143,,,
12.716,397,35.85247268,,,
12.72,397,24.71963676,,,
12.724,397,36.12406932,,,
12.728,397,64.56637353,,,
12.732,397,81.98818981,,,
12.736,398,68.09734086,,,
12.74,398,40.49813683,,,
12.744,398,17.68128156,,,
12.748,398,21.20167588,,,
12.752,398,45.67757321,,,
12.756,398,45.69861836,,,
12.76,398,21.00298265,,,
12.764,398,4.586201715,,,
12.768,399,16.07333709,,,
12.772,399,17.73236084,,,
12.776,399,-9.008378522,,,
12.78,399,-10.47729385,,,
12.784,399,5.123916732,,,
12.788,399,6.2545128,,,
12.792,399,-4.285513684,,,
12.796,399,-3.927296688,,,
12.8,400,13.33080385,,,
12.804,400,28.81013878,,,
12.808,400,55.76799234,,,
12.812,400,77.24896144,,,
12.816,400,70.05919246,,,
12.82,400,57.51539888,,,
12.824,400,65.41448141,,,
12.828,400,94.49625622,,,
12.832,401,87.0445669,,,
12.836,401,38.39386936,,,
12.84,401,31.2506874,,,
12.844,401,52.94899244,,,
12.848,401,49.44200632,,,
12.852,401,35.32982426,,,
12.856,401,25.85451577,,,
12.86,401,20.4651595,,,
12.864,402,12.52029867,,,
12.868,402,24.57017416,,,
12.872,402,44.97442299,,,
12.876,402,41.92556745,,,
12.88,402,29.47496378,,,
12.884,402,17.07980279,,,
12.888,402,12.23964891,,,
12.892,402,39.17985728,,,
12.896,403,87.92314735,,,
12.9,403,82.74694499,,,
12.904,403,39.41585207,,,
12.908,403,47.01308512,,,
12.912,403,64.99101505,,,
12.916,403,63.16079015,,,
12.92,403,64.65823378,,,
12.924,403,52.8169121,,,
12.928,404,53.24136848,,,
12.932,404,77.50104471,,,
12.936,404,89.2130377,,,
12.94,404,76.02996673,,,
12.944,404,52.8020869,,,
12.948,404,50.71094126,,,
12.952,404,75.06609786,,,
12.956,404,82.86628204,,,
12.96,405,58.23476685,,,
12.964,405,25.75103039,,,
12.968,405,6.806259881,,,
12.972,405,8.19830856,,,
12.976,405,17.46181708,,,
12.98,405,16.74501395,,,
12.984,405,12.19436982,,,
12.988,405,6.644395132,,,
12.992,406,-9.2021944,,,
12.996,406,-14.01492831,,,
13,406,-14.30915956,,,
13.004,406,-15.52850344,,,
13.008,406,-20.1345906,,,
13.012,406,-36.47141697,,,
13.016,406,-12.94552517,,,
13.02,406,18.8976418,,,
13.024,407,20.3400735,,,
13.028,407,-4.5814388,,,
13.032,407,-50.9638749,,,
13.036,407,-50.47157224,,,
13.04,407,-27.80680226,,,
13.044,407,-26.28633263,,,
13.048,407,-13.78385473,,,
13.052,407,3.659930712,,,
13.056,408,11.10616111,,,
13.06,408,24.71406929,,,
13.064,408,48.75809956,,,
13.068,408,49.8100614,,,
13.072,408,41.1947422,,,
13.076,408,53.77208806,,,
13.08,408,59.62694656,,,
13.084,408,42.74974096,,,
13.088,409,22.66525169,,,
13.092,409,20.23325192,,,
13.096,409,51.44421543,,,
13.1,409,90.10419257,,,
13.104,409,73.31011631,,,
13.108,409,37.7122518,,,
13.112,409,27.02420929,,,
13.116,409,43.79056763,,,
13.12,410,97.49433676,,,
13.124,410,133.5538552,,,
13.128,410,120.9844065,,,
13.132,410,95.99567653,,,
13.136,410,84.49788526,,,
13.14,410,100.8822799,,,
13.144,410,113.4067433,,,
13.148,410,105.7153622,,,
13.152,411,123.399754,,,
13.156,411,138.2615399,,,
13.16,411,130.7298622,,,
13.164,411,118.5583747,,,
13.168,411,96.34608817,,,
13.172,411,92.35629254,,,
13.176,411,88.10672069,,,
13.18,411,64.82748617,,,
13.184,412,59.14370567,,,
13.188,412,31.53314734,,,
13.192,412,-19.67549137,,,
13.196,412,-32.67781847,,,
13.2,412,-34.5900624,,,
13.204,412,-48.44750418,,,
13.208,412,-60.480126,,,
13.212,412,-71.39787914,,,
13.216,413,-83.17665399,,,
13.22,413,-85.56685581,,,
13.224,413,-62.73381963,,,
13.228,413,-45.30136138,,,
13.232,413,-59.05708087,,,
13.236,413,-59.56511951,,,
13.24,413,-67.80987094,,,
13.244,413,-78.36437757,,,
13.248,414,-35.48285596,,,
13.252,414,-5.51653098,,,
13.256,414,13.51960872,,,
13.26,414,21.94434782,,,
13.264,414,-23.30972513,,,
13.268,414,-56.31088371,,,
13.272,414,-43.99037882,,,
13.276,414,-17.8026621,,,
13.28,415,-5.346281345,,,
13.284,415,-7.660528963,,,
13.288,415,-20.63051259,,,
13.292,415,-47.50387576,,,
13.296,415,-56.40692178,,,
13.3,415,-34.88708752,,,
13.304,415,-10.76476063,,,
13.308,415,4.931445131,,,
13.312,416,3.402657191,,,
13.316,416,-16.94476513,,,
13.32,416,-18.25807296,,,
13.324,416,12.94691803,,,
13.328,416,39.57543248,,,
13.332,416,46.35201357,,,
13.336,416,36.61583189,,,
13.34,416,12.72874941,,,
13.344,417,-2.233231299,,,
13.348,417,12.66500214,,,
13.352,417,49.27023483,,,
13.356,417,81.95967842,,,
13.36,417,102.192089,,,
13.364,417,102.1181182,,,
13.368,417,98.17452531,,,
13.372,417,115.5565484,,,
13.376,418,130.290835,,,
13.38,418,145.6773675,,,
13.384,418,142.3381244,,,
13.388,418,109.0938355,,,
13.392,418,101.5150766,,,
13.396,418,131.4477563,,,
13.4,418,152.2443126,,,
13.404,418,151.3886093,,,
13.408,419,145.2785188,,,
13.412,419,114.9435933,,,
13.416,419,81.3454554,,,
13.42,419,94.93491338,,,
13.424,419,109.6041963,,,
13.428,419,89.89752909,,,
13.432,419,81.11055785,,,
13.436,419,88.54955033,,,
13.44,420,93.96827727,,,
13.444,420,90.33843318,,,
13.448,420,83.8634251,,,
13.452,420,75.51945727,,,
13.456,420,51.87973793,,,
13.46,420,40.94387811,,,
13.464,420,50.8712254,,,
13.468,420,53.87491706,,,
13.472,421,51.81573934,,,
13.476,421,51.86414771,,,
13.48,421,36.62112611,,,
13.484,421,6.753447872,,,
13.488,421,-4.093825263,,,
13.492,421,-2.036538124,,,
13.496,421,1.012816071,,,
13.5,421,24.0910807,,,
13.504,422,35.06042773,,,
13.508,422,14.74623502,,,
13.512,422,25.58334869,,,
13.516,422,58.555261,,,
13.52,422,47.0462418,,,
13.524,422,20.35277113,,,
13.528,422,21.22123221,,,
13.532,422,19.26423205,,,
13.536,423,22.72794496,,,
13.54,423,43.80166341,,,
13.544,423,41.91886156,,,
13.548,423,20.4839727,,,
13.552,423,15.98815101,,,
13.556,423,35.31082474,,,
13.56,423,39.82373958,,,
13.564,423,21.74989988,,,
13.568,424,4.294842215,,,
13.572,424,-7.209475308,,,
13.576,424,1.86961706,,,
13.58,424,15.98988961,,,
13.584,424,13.50955763,,,
13.588,424,7.471143727,,,
13.592,424,17.22399344,,,
13.596,424,33.29899246,,,
13.6,425,25.58785774,,,
13.604,425,-4.082139977,,,
13.608,425,-24.68777606,,,
13.612,425,-22.44066879,,,
13.616,425,3.724671756,,,
13.62,425,43.05115802,,,
13.624,425,62.23078751,,,
13.628,425,46.53777309,,,
13.632,426,24.65442351,,,
13.636,426,18.79662515,,,
13.64,426,27.20264499,,,
13.644,426,44.39045618,,,
13.648,426,39.01342095,,,
13.652,426,17.80649806,,,
13.656,426,17.3811002,,,
13.66,426,4.912711842,,,
13.664,427,-26.47894753,,,
13.668,427,-20.25173989,,,
13.672,427,-3.246446249,,,
13.676,427,-15.18318226,,,
13.68,427,5.37826838,,,
13.684,427,52.32990368,,,
13.688,427,37.93037293,,,
13.692,427,19.51097748,,,
13.696,428,51.64982771,,,
13.7,428,65.17402784,,,
13.704,428,67.74495383,,,
13.708,428,91.12103866,,,
13.712,428,95.55305053,,,
13.716,428,61.08411487,,,
13.72,428,11.36570148,,,
13.724,428,-10.70115366,,,
13.728,429,7.270576263,,,
13.732,429,37.00436459,,,
13.736,429,56.72542004,,,
13.74,429,74.9703569,,,
13.744,429,69.22412482,,,
13.748,429,27.61539523,,,
13.752,429,7.500357928,,,
13.756,429,12.41815101,,,
13.76,430,8.906903557,,,
13.764,430,37.91489546,,,
13.768,430,67.48401117,,,
13.772,430,41.62843008,,,
13.776,430,50.29870706,,,
13.78,430,64.69755422,,,
13.784,430,50.17383287,,,
13.788,430,71.06290333,,,
13.792,431,69.56355618,,,
13.796,431,27.7243644,,,
13.8,431,-2.001793636,,,
13.804,431,-0.068910555,,,
13.808,431,27.3114959,,,
13.812,431,59.63509477,,,
13.816,431,58.27328748,,,
13.82,431,15.04943166,,,
13.824,432,-6.167819111,,,
13.828,432,16.89963293,,,
13.832,432,30.86741415,,,
13.836,432,33.51129034,,,
13.84,432,55.22039703,,,
13.844,432,64.90497322,,,
13.848,432,49.94145858,,,
13.852,432,29.76107433,,,
13.856,433,29.1737477,,,
13.86,433,58.97631502,,,
13.864,433,81.13698757,,,
13.868,433,81.19899867,,,
13.872,433,71.01073405,,,
13.876,433,46.41880596,,,
13.88,433,34.11734898,,,
13.884,433,52.91680594,,,
13.888,434,59.97406486,,,
13.892,434,38.29758883,,,
13.896,434,16.56338627,,,
13.9,434,-2.18271296,,,
13.904,434,-5.757964066,,,
13.908,434,2.988690893,,,
13.912,434,5.353625232,,,
13.916,434,20.77862423,,,
13.92,435,45.59900463,,,
13.924,435,52.90944286,,,
13.928,435,35.15776281,,,
13.932,435,21.85350085,,,
13.936,435,33.9453876,,,
13.94,435,31.69319102,,,
13.944,435,10.55840274,,,
13.948,435,6.261660753,,,
13.952,436,2.336376021,,,
13.956,436,-0.560924748,,,
13.96,436,11.61618916,,,
13.964,436,12.7510847,,,
13.968,436,15.52103359,,,
13.972,436,47.32034529,,,
13.976,436,67.6353803,,,
13.98,436,57.70914266,,,
13.984,437,35.44996666,,,
13.988,437,12.74730611,,,
13.992,437,2.867973576,,,
13.996,437,3.273062259,,,
14,437,15.29953898,,,
14.004,437,29.80933677,,,
14.008,437,44.40596245,,,
14.012,437,65.89476615,,,
14.016,438,64.94335317,,,
14.02,438,41.93916835,,,
14.024,438,21.15140098,,,
14.028,438,15.90499568,,,
14.032,438,34.24170279,,,
14.036,438,47.61518717,,,
14.04,438,46.67660372,,,
14.044,438,53.88554423,,,
14.048,439,68.03689527,,,
14.052,439,71.90406238,,,
14.056,439,58.69808906,,,
14.06,439,48.81917732,,,
14.064,439,48.89041332,,,
14.068,439,39.20907565,,,
14.072,439,34.31557573,,,
14.076,439,32.02826151,,,
14.08,440,32.65220351,,,
14.084,440,58.23176837,,,
14.088,440,80.73249935,,,
14.092,440,68.57472481,,,
14.096,440,42.20545555,,,
14.1,440,33.20380305,,,
14.104,440,35.97862389,,,
14.108,440,27.63793026,,,
14.112,441,25.93137427,,,
14.116,441,31.55960886,,,
14.12,441,26.33909426,,,
14.124,441,29.51966369,,,
14.128,441,28.29026261,,,
14.132,441,20.57686178,,,
14.136,441,10.32098968,,,
14.14,441,5.982634471,,,
14.144,442,35.52201745,,,
14.148,442,45.8950417,,,
14.152,442,36.26900535,,,
14.156,442,51.03113516,,,
14.16,442,48.13740456,,,
14.164,442,20.12658701,,,
14.168,442,5.639452569,,,
14.172,442,26.42614126,,,
14.176,443,44.77886912,,,
14.18,443,45.79126041,,,
14.184,443,70.42583719,,,
14.188,443,80.09522833,,,
14.192,443,57.95559867,,,
14.196,443,67.55445254,,,
14.2,443,78.56889412,,,
14.204,443,56.76915283,,,
14.208,444,52.47728056,,,
14.212,444,44.61607533,,,
14.216,444,13.78861359,,,
14.22,444,-0.341100697,,,
14.224,444,8.87535791,,,
14.228,444,11.29226877,,,
14.232,444,13.13569151,,,
14.236,444,51.95231902,,,
14.24,445,94.78792988,,,
14.244,445,79.12663522,,,
14.248,445,30.6711863,,,
14.252,445,24.04533744,,,
14.256,445,51.7341861,,,
14.26,445,60.67441884,,,
14.264,445,64.42534326,,,
14.268,445,87.33127888,,,
14.272,446,100.7032463,,,
14.276,446,90.57537723,,,
14.28,446,80.1278964,,,
14.284,446,64.63176311,,,
14.288,446,21.74069033,,,
14.292,446,5.655429316,,,
14.296,446,34.96302563,,,
14.3,446,44.81239911,,,
14.304,447,45.39558812,,,
14.308,447,55.32458342,,,
14.312,447,56.41574233,,,
14.316,447,47.86638377,,,
14.32,447,50.23540538,,,
14.324,447,72.46196942,,,
14.328,447,70.42067022,,,
14.332,447,56.24417349,,,
14.336,448,52.81874398,,,
14.34,448,30.12307036,,,
14.344,448,25.49820965,,,
14.348,448,52.52882894,,,
14.352,448,56.88581785,,,
14.356,448,48.81649215,,,
14.36,448,55.75123156,,,
14.364,448,61.60162689,,,
14.368,449,56.65422171,,,
14.372,449,49.23275599,,,
14.376,449,46.96648706,,,
14.38,449,36.50405809,,,
14.384,449,9.192515626,,,
14.388,449,-6.618770597,,,
14.392,449,-3.677030814,,,
14.396,449,11.54212538,,,
14.4,450,30.56123267,,,
14.404,450,33.75911362,,,
14.408,450,40.56635872,,,
14.412,450,46.71821385,,,
14.416,450,38.19298017,,,
14.42,450,45.45470714,,,
14.424,450,66.38546809,,,
14.428,450,66.82472033,,,
14.432,451,51.20183461,,,
14.436,451,46.1065535,,,
14.44,451,42.49166947,,,
14.444,451,27.84654327,,,
14.448,451,22.88187015,,,
14.452,451,26.19971112,,,
14.456,451,29.94004142,,,
14.46,451,46.67406823,,,
14.464,452,59.40383729,,,
14.468,452,53.74808052,,,
14.472,452,30.17875849,,,
14.476,452,14.70120864,,,
14.48,452,35.14406757,,,
14.484,452,45.65954722,,,
14.488,452,24.45383535,,,
14.492,452,7.458851988,,,
14.496,453,22.02069577,,,
14.5,453,47.8486697,,,
14.504,453,54.92908428,,,
14.508,453,51.79649301,,,
14.512,453,49.27978649,,,
14.516,453,47.14678249,,,
14.52,453,40.69028043,,,
14.524,453,30.99958389,,,
14.528,454,33.94297029,,,
14.532,454,50.87492959,,,
14.536,454,65.65269698,,,
14.54,454,61.71349193,,,
14.544,454,35.26434631,,,
14.548,454,26.58045618,,,
14.552,454,41.38629971,,,
14.556,454,55.90565556,,,
14.56,455,61.786221,,,
14.564,455,44.43166743,,,
14.568,455,34.90887701,,,
14.572,455,37.52182524,,,
14.576,455,29.40526395,,,
14.58,455,19.6288681,,,
14.584,455,23.91435823,,,
14.588,455,47.23771055,,,
14.592,456,21.05206954,,,
14.596,456,-17.15632968,,,
14.6,456,-4.614184596,,,
14.604,456,-25.89174629,,,
14.608,456,-50.74282021,,,
14.612,456,-22.43353597,,,
14.616,456,-15.05983226,,,
14.62,456,-12.92678259,,,
14.624,457,23.19234612,,,
14.628,457,43.35885034,,,
14.632,457,62.68832967,,,
14.636,457,77.63874265,,,
14.64,457,58.11910567,,,
14.644,457,35.3639573,,,
14.648,457,15.95139919,,,
14.652,457,9.496886236,,,
14.656,458,14.87441223,,,
14.66,458,21.99200273,,,
14.664,458,30.18594429,,,
14.668,458,34.1626646,,,
14.672,458,43.7539265,,,
14.676,458,55.62388438,,,
14.68,458,71.59985667,,,
14.684,458,69.21274871,,,
14.688,459,47.28393614,,,
14.692,459,42.98286078,,,
14.696,459,37.75020235,,,
14.7,459,26.19769912,,,
14.704,459,33.85241452,,,
14.708,459,58.76012884,,,
14.712,459,62.25222396,,,
14.716,459,35.7610462,,,
14.72,460,15.98228493,,,
14.724,460,6.345024333,,,
14.728,460,15.20589968,,,
14.732,460,38.22191182,,,
14.736,460,36.78085233,,,
14.74,460,25.49483371,,,
14.744,460,16.93811762,,,
14.748,460,-8.111722182,,,
14.752,461,-20.43740241,,,
14.756,461,-8.277226942,,,
14.76,461,12.62416436,,,
14.764,461,58.00126556,,,
14.768,461,81.42365829,,,
14.772,461,54.31450402,,,
14.776,461,43.29042013,,,
14.78,461,64.37344375,,,
14.784,462,86.25213362,,,
14.788,462,107.2257496,,,
14.792,462,113.1509778,,,
14.796,462,84.24588416,,,
14.8,462,66.53867782,,,
14.804,462,73.72990147,,,
14.808,462,62.1407971,,,
14.812,462,48.3754367,,,
14.816,463,58.38516341,,,
14.82,463,70.64387352,,,
14.824,463,59.22194083,,,
14.828,463,44.86803125,,,
14.832,463,56.49274206,,,
14.836,463,64.31746602,,,
14.84,463,37.37433739,,,
14.844,463,3.078282428,,,
14.848,464,5.458996516,,,
14.852,464,24.21826993,,,
14.856,464,30.44775738,,,
14.86,464,47.2119734,,,
14.864,464,50.07438955,,,
14.868,464,17.12615284,,,
14.872,464,16.25160305,,,
14.876,464,48.61498722,,,
14.88,465,64.09078943,,,
14.884,465,74.81794632,,,
14.888,465,84.15403365,,,
14.892,465,87.9729481,,,
14.896,465,69.10589816,,,
14.9,465,22.52109533,,,
14.904,465,-3.491210546,,,
14.908,465,8.57807642,,,
14.912,466,27.62930905,,,
14.916,466,36.34171956,,,
14.92,466,38.38112595,,,
14.924,466,36.6563671,,,
14.928,466,36.97150243,,,
14.932,466,47.08073455,,,
14.936,466,64.47155655,,,
14.94,466,65.40182742,,,
14.944,467,31.22181404,,,
14.948,467,-3.134921045,,,
14.952,467,8.416888052,,,
14.956,467,32.35081908,,,
14.96,467,19.28318544,,,
14.964,467,1.298845338,,,
14.968,467,-0.816556128,,,
14.972,467,8.626662703,,,
14.976,468,45.37689508,,,
14.98,468,74.64745527,,,
14.984,468,61.14431806,,,
14.988,468,54.11823397,,,
14.992,468,60.4858156,,,
14.996,468,44.55357773,,,
15,468,45.70846068,,,
15.004,468,52.93597688,,,
15.008,469,39.10752967,,,
15.012,469,52.14413434,,,
15.016,469,55.28543411,,,
15.02,469,14.5971633,,,
15.024,469,-2.920837036,,,
15.028,469,17.38822161,,,
15.032,469,42.09571846,,,
15.036,469,53.8932599,,,
15.04,470,66.01570603,,,
15.044,470,59.31105572,,,
15.048,470,35.33867507,,,
15.052,470,69.67697175,,,
15.056,470,114.2880811,,,
15.06,470,91.91699165,,,
15.064,470,55.93339116,,,
15.068,470,50.088547,,,
15.072,471,52.67081997,,,
15.076,471,41.97352773,,,
15.08,471,40.59541007,,,
15.084,471,34.37903176,,,
15.088,471,10.54408721,,,
15.092,471,2.959076552,,,
15.096,471,1.636269374,,,
15.1,471,0.548342243,,,
15.104,472,-3.872164633,,,
15.108,472,-18.83617954,,,
15.112,472,-10.76653172,,,
15.116,472,17.4425594,,,
15.12,472,32.49748113,,,
15.124,472,34.44732501,,,
15.128,472,33.82880669,,,
15.132,472,37.24912209,,,
15.136,473,29.78147962,,,
15.14,473,1.474511839,,,
15.144,473,-17.71009375,,,
15.148,473,-7.40954726,,,
15.152,473,12.50151897,,,
15.156,473,15.43257113,,,
15.16,473,16.87937344,,,
15.164,473,41.24033723,,,
15.168,474,72.89448444,,,
15.172,474,96.44618207,,,
15.176,474,93.30143066,,,
15.18,474,46.659451,,,
15.184,474,3.31331805,,,
15.188,474,11.24370424,,,
15.192,474,27.09255755,,,
15.196,474,21.27524379,,,
15.2,475,26.39753089,,,
15.204,475,25.76031567,,,
15.208,475,24.49022271,,,
15.212,475,34.23422583,,,
15.216,475,19.14796227,,,
15.22,475,9.830755979,,,
15.224,475,31.76125564,,,
15.228,475,41.07275682,,,
15.232,476,26.12391697,,,
15.236,476,12.27395246,,,
15.24,476,21.11298881,,,
15.244,476,35.56659458,,,
15.248,476,19.04742515,,,
15.252,476,1.716262121,,,
15.256,476,12.46024467,,,
15.26,476,29.50185888,,,
15.264,477,41.56113866,,,
15.268,477,52.82962222,,,
15.272,477,58.56739592,,,
15.276,477,48.8260166,,,
15.28,477,47.81174394,,,
15.284,477,70.70760087,,,
15.288,477,61.92058472,,,
15.292,477,33.66507356,,,
15.296,478,61.46124394,,,
15.3,478,81.0669473,,,
15.304,478,58.0240359,,,
15.308,478,72.75021615,,,
15.312,478,87.49684762,,,
15.316,478,49.72927163,,,
15.32,478,18.15182225,,,
15.324,478,30.85556892,,,
15.328,479,52.02935783,,,
15.332,479,33.30569666,,,
15.336,479,-3.834486041,,,
15.34,479,-17.45608855,,,
15.344,479,-15.56686618,,,
15.348,479,0.657323243,,,
15.352,479,7.421490959,,,
15.356,479,8.926926578,,,
15.36,480,27.90195465,,,
15.364,480,17.23134608,,,
15.368,480,-5.187916998,,,
15.372,480,-17.63665125,,,
15.376,480,-41.4378594,,,
15.38,480,-28.51986296,,,
15.384,480,14.47791926,,,
15.388,480,21.81866155,,,
15.392,481,14.12288895,,,
15.396,481,19.74392548,,,
15.4,481,11.56680172,,,
15.404,481,-20.54355609,,,
15.408,481,-39.52653884,,,
15.412,481,-20.60336595,,,
15.416,481,1.109595051,,,
15.42,481,5.944657529,,,
15.424,482,-7.62761112,,,
15.428,482,-22.4434423,,,
15.432,482,-14.58986945,,,
15.436,482,-5.309888266,,,
15.44,482,0.712096833,,,
15.444,482,29.54513929,,,
15.448,482,52.64330122,,,
15.452,482,45.32095718,,,
15.456,483,42.9687917,,,
15.46,483,36.32910501,,,
15.464,483,18.10937826,,,
15.468,483,18.35994788,,,
15.472,483,21.52182575,,,
15.476,483,15.99089314,,,
15.48,483,35.56673637,,,
15.484,483,73.44068234,,,
15.488,484,70.25957934,,,
15.492,484,49.61010922,,,
15.496,484,48.34009824,,,
15.5,484,51.18314939,,,
15.504,484,58.39515476,,,
15.508,484,62.76167305,,,
15.512,484,52.05910147,,,
15.516,484,17.23994797,,,
15.52,485,5.811250535,,,
15.524,485,50.05871817,,,
15.528,485,56.78143231,,,
15.532,485,25.71585009,,,
15.536,485,34.05412003,,,
15.54,485,40.95555388,,,
15.544,485,36.98432443,,,
15.548,485,52.29806849,,,
15.552,486,45.88685922,,,
15.556,486,40.89404189,,,
15.56,486,64.34774997,,,
15.564,486,56.06888599,,,
15.568,486,39.62946528,,,
15.572,486,62.04984583,,,
15.576,486,78.58151005,,,
15.58,486,57.01175067,,,
15.584,487,41.65656841,,,
15.588,487,40.38835053,,,
15.592,487,28.19470575,,,
15.596,487,34.43555479,,,
15.6,487,54.10284416,,,
15.604,487,41.09529912,,,
15.608,487,23.37089751,,,
15.612,487,32.40790065,,,
15.616,488,26.50942518,,,
15.62,488,-2.530122205,,,
15.624,488,-9.589660997,,,
15.628,488,9.40168411,,,
15.632,488,40.63066648,,,
15.636,488,66.55693957,,,
15.64,488,66.34536566,,,
15.644,488,58.67833285,,,
15.648,489,54.26842151,,,
15.652,489,57.83934544,,,
15.656,489,47.71877304,,,
15.66,489,10.67596042,,,
15.664,489,0.082521284,,,
15.668,489,24.70711327,,,
15.672,489,27.69763799,,,
15.676,489,10.92837666,,,
15.68,490,26.91176787,,,
15.684,490,51.5779799,,,
15.688,490,45.61931697,,,
15.692,490,47.44667312,,,
15.696,490,66.32869871,,,
15.7,490,62.86032864,,,
15.704,490,39.55010453,,,
15.708,490,12.82052699,,,
15.712,491,-20.45324874,,,
15.716,491,-36.11578713,,,
15.72,491,-13.60744519,,,
15.724,491,18.72567387,,,
15.728,491,33.80804759,,,
15.732,491,35.37575429,,,
15.736,491,34.06838399,,,
15.74,491,47.45917294,,,
15.744,492,76.30518926,,,
15.748,492,81.14319055,,,
15.752,492,52.88075423,,,
15.756,492,35.46427435,,,
15.76,492,46.99513129,,,
15.764,492,55.69232643,,,
15.768,492,52.86265265,,,
15.772,492,45.00005113,,,
15.776,493,20.73656857,,,
15.78,493,6.722735327,,,
15.784,493,32.00786061,,,
15.788,493,77.53330011,,,
15.792,493,92.67301976,,,
15.796,493,58.26674768,,,
15.8,493,43.25257452,,,
15.804,493,77.19444876,,,
15.808,494,100.6198368,,,
15.812,494,109.2950802,,,
15.816,494,100.4628173,,,
15.82,494,66.11740177,,,
15.824,494,46.65092565,,,
15.828,494,55.65997302,,,
15.832,494,64.08686736,,,
15.836,494,58.92807049,,,
15.84,495,61.27742081,,,
15.844,495,47.25979881,,,
15.848,495,37.82565235,,,
15.852,495,70.11479462,,,
15.856,495,53.10884373,,,
15.86,495,-8.715158283,,,
15.864,495,-21.94308287,,,
15.868,495,-16.70772451,,,
15.872,496,-2.590909883,,,
15.876,496,28.1711887,,,
15.88,496,11.75454507,,,
15.884,496,-22.53033168,,,
15.888,496,-1.567084685,,,
15.892,496,11.81546846,,,
15.896,496,-0.837143806,,,
15.9,496,16.83642865,,,
15.904,497,32.13385604,,,
15.908,497,33.08246449,,,
15.912,497,64.34607874,,,
15.916,497,77.39210852,,,
15.92,497,60.80644928,,,
15.924,497,90.06716263,,,
15.928,497,102.5743626,,,
15.932,497,66.85137645,,,
15.936,498,68.41618442,,,
15.94,498,64.75646382,,,
15.944,498,31.7794626,,,
15.948,498,29.21661976,,,
15.952,498,33.80752061,,,
15.956,498,34.39241143,,,
15.96,498,47.13815609,,,
15.964,498,71.9449666,,,
15.968,499,71.62823341,,,
15.972,499,30.70027386,,,
15.976,499,33.24754529,,,
15.98,499,60.79075165,,,
15.984,499,49.68591845,,,
15.988,499,65.01541263,,,
15.992,499,84.29057221,,,
15.996,499,61.13495083,,,
16,500,64.02985803,,,
16.004,500,93.45156753,,,
16.008,500,69.33211728,,,
16.012,500,18.0729179,,,
16.016,500,19.25622843,,,
16.02,500,26.71176736,,,
16.024,500,11.2368876,,,
16.028,500,31.33942535,,,
16.032,501,61.5845066,,,
16.036,501,64.03516374,,,
16.04,501,79.61072407,,,
16.044,501,87.74194788,,,
16.048,501,60.76218709,,,
16.052,501,51.05238776,,,
16.056,501,67.02277689,,,
16.06,501,86.61386523,,,
16.064,502,93.28994345,,,
16.068,502,80.89001018,,,
16.072,502,85.29301499,,,
16.076,502,92.4585008,,,
16.08,502,81.54911172,,,
16.084,502,81.96038156,,,
16.088,502,88.68808901,,,
16.092,502,85.24901918,,,
16.096,503,68.9415205,,,
16.1,503,65.48475155,,,
16.104,503,102.9415859,,,
16.108,503,133.639875,,,
16.112,503,116.7562499,,,
16.116,503,79.16771089,,,
16.12,503,35.15344264,,,
16.124,503,18.33953211,,,
16.128,504,39.0450511,,,
16.132,504,48.0610657,,,
16.136,504,36.19033591,,,
16.14,504,21.67921678,,,
16.144,504,23.76494189,,,
16.148,504,38.22503298,,,
16.152,504,35.0868101,,,
16.156,504,36.69955409,,,
16.16,505,57.44554911,,,
16.164,505,46.79058544,,,
16.168,505,37.45641897,,,
16.172,505,71.68802666,,,
16.176,505,68.49419117,,,
16.18,505,30.45724268,,,
16.184,505,16.90201263,,,
16.188,505,15.75188515,,,
16.192,506,18.99723489,,,
16.196,506,22.75687673,,,
16.2,506,34.44716857,,,
16.204,506,36.85128328,,,
16.208,506,32.30210799,,,
16.212,506,46.0119528,,,
16.216,506,64.55574746,,,
16.22,506,76.6792293,,,
16.224,507,72.34263249,,,
16.228,507,57.3700242,,,
16.232,507,41.91577433,,,
16.236,507,23.13271293,,,
16.24,507,10.64807977,,,
16.244,507,26.31744925,,,
16.248,507,56.07262755,,,
16.252,507,65.90949044,,,
16.256,508,62.13614641,,,
16.26,508,31.42350282,,,
16.264,508,5.505640327,,,
16.268,508,50.07057034,,,
16.272,508,99.26566093,,,
16.276,508,106.3380795,,,
16.28,508,122.959868,,,
16.284,508,146.2919489,,,
16.288,509,154.0511759,,,
16.292,509,181.3906113,,,
16.296,509,206.4603489,,,
16.3,509,185.0477161,,,
16.304,509,166.8306326,,,
16.308,509,161.8169485,,,
16.312,509,129.8766532,,,
16.316,509,77.02400453,,,
16.32,510,35.88121755,,,
16.324,510,18.26530729,,,
16.328,510,-14.09031195,,,
16.332,510,-42.76791759,,,
16.336,510,-22.3736756,,,
16.34,510,-9.715740683,,,
16.344,510,-32.20228514,,,
16.348,510,-49.93412831,,,
16.352,511,-47.23673175,,,
16.356,511,-31.1137737,,,
16.36,511,-12.1642352,,,
16.364,511,-13.00972267,,,
16.368,511,-43.98698479,,,
16.372,511,-64.27615956,,,
16.376,511,-59.46893697,,,
16.38,511,-56.87081723,,,
16.384,512,-45.90455024,,,
16.388,512,-21.64208759,,,
16.392,512,-13.53446255,,,
16.396,512,-6.591187377,,,
16.4,512,14.90596094,,,
16.404,512,25.94003289,,,
16.408,512,21.11528967,,,
16.412,512,-1.007715883,,,
16.416,513,-15.11161798,,,
16.42,513,-8.660777299,,,
16.424,513,-15.65930901,,,
16.428,513,-25.74088851,,,
16.432,513,-30.00568813,,,
16.436,513,-32.8383646,,,
16.44,513,-29.21250878,,,
16.444,513,-29.65370743,,,
16.448,514,-36.78109815,,,
16.452,514,-55.51092034,,,
16.456,514,-67.82913845,,,
16.46,514,-52.9025345,,,
16.464,514,-17.50431841,,,
16.468,514,6.900987277,,,
16.472,514,-12.24164413,,,
16.476,514,-42.72937303,,,
16.48,515,-37.12177967,,,
16.484,515,-28.42948081,,,
16.488,515,-29.71671592,,,
16.492,515,-0.025750376,,,
16.496,515,17.07153041,,,
16.5,515,-11.90374525,,,
16.504,515,-31.64449332,,,
16.508,515,-25.92606825,,,
16.512,516,-27.9657453,,,
16.516,516,-35.72927654,,,
16.52,516,-42.33918344,,,
16.524,516,-59.60448904,,,
16.528,516,-53.5235688,,,
16.532,516,-1.537754657,,,
16.536,516,38.72583658,,,
16.54,516,51.96048988,,,
16.544,517,57.98866735,,,
16.548,517,25.41357616,,,
16.552,517,-21.48083659,,,
16.556,517,-33.73735292,,,
16.56,517,-28.42665796,,,
16.564,517,-30.48193769,,,
16.568,517,-22.5952792,,,
16.572,517,1.061026863,,,
16.576,518,-4.154459353,,,
16.58,518,-27.29107342,,,
16.584,518,-25.44742704,,,
16.588,518,-12.35837326,,,
16.592,518,-9.470791024,,,
16.596,518,-15.68342801,,,
16.6,518,-19.05742379,,,
16.604,518,-41.45080381,,,
16.608,519,-81.86154225,,,
16.612,519,-84.64036199,,,
16.616,519,-66.99079331,,,
16.62,519,-44.96113495,,,
16.624,519,-3.29417809,,,
16.628,519,30.67371891,,,
16.632,519,55.57444683,,,
16.636,519,52.39649694,,,
16.64,520,10.84601085,,,
16.644,520,-22.1524091,,,
16.648,520,-31.80543585,,,
16.652,520,-29.72583154,,,
16.656,520,-15.28846942,,,
16.66,520,5.77592442,,,
16.664,520,12.55283937,,,
16.668,520,1.799155673,,,
16.672,521,-4.735314523,,,
16.676,521,-14.03064902,,,
16.68,521,-47.00539948,,,
16.684,521,-69.3053106,,,
16.688,521,-49.83172122,,,
16.692,521,-35.18171303,,,
16.696,521,-45.99685265,,,
16.7,521,-26.97546388,,,
16.704,522,10.33819286,,,
16.708,522,-6.007184624,,,
16.712,522,-30.6939645,,,
16.716,522,-8.688916424,,,
16.72,522,-7.730287024,,,
16.724,522,-30.79791052,,,
16.728,522,-27.04957784,,,
16.732,522,2.754222243,,,
16.736,523,28.66772993,,,
16.74,523,37.55535957,,,
16.744,523,33.0093542,,,
16.748,523,16.47782033,,,
16.752,523,0.677157765,,,
16.756,523,-24.99706855,,,
16.76,523,-33.57632907,,,
16.764,523,-12.40304735,,,
16.768,524,-11.13977469,,,
16.772,524,-10.29017204,,,
16.776,524,7.711883282,,,
16.78,524,11.61493579,,,
16.784,524,2.075456823,,,
16.788,524,-2.464959797,,,
16.792,524,9.626859178,,,
16.796,524,23.21512113,,,
16.8,525,27.68670063,,,
16.804,525,17.30970381,,,
16.808,525,-6.274537533,,,
16.812,525,-20.89540504,,,
16.816,525,-24.25795143,,,
16.82,525,-10.96366049,,,
16.824,525,3.311274674,,,
16.828,525,-0.099750092,,,
16.832,526,9.783165578,,,
16.836,526,34.28714587,,,
16.84,526,41.91540151,,,
16.844,526,34.61991236,,,
16.848,526,11.0966068,,,
16.852,526,-25.99594017,,,
16.856,526,-28.42199633,,,
16.86,526,14.96483211,,,
16.864,527,45.74509649,,,
16.868,527,30.58810364,,,
16.872,527,13.879792,,,
16.876,527,17.15624567,,,
16.88,527,24.0643295,,,
16.884,527,26.52722012,,,
16.888,527,16.15499077,,,
16.892,527,26.5924221,,,
16.896,528,50.9403564,,,
16.9,528,66.61427215,,,
16.904,528,94.48695542,,,
16.908,528,91.25054058,,,
16.912,528,51.22955838,,,
16.916,528,35.23581061,,,
16.92,528,44.53101884,,,
16.924,528,68.65194532,,,
16.928,529,94.85283621,,,
16.932,529,96.60635997,,,
16.936,529,100.1299497,,,
16.94,529,116.882057,,,
16.944,529,120.1578605,,,
16.948,529,107.2127266,,,
16.952,529,116.7605963,,,
16.956,529,128.8162214,,,
16.96,530,96.81210467,,,
16.964,530,88.27176973,,,
16.968,530,103.022508,,,
16.972,530,92.55061577,,,
16.976,530,107.5427069,,,
16.98,530,143.5970594,,,
16.984,530,146.0793048,,,
16.988,530,130.5278394,,,
16.992,531,124.86776,,,
16.996,531,115.6897006,,,
17,531,93.25498149,,,
17.004,531,99.73214822,,,
17.008,531,130.6635157,,,
17.012,531,123.8721444,,,
17.016,531,110.5298195,,,
17.02,531,114.9133915,,,
17.024,532,112.6832414,,,
17.028,532,133.0440295,,,
17.032,532,152.106124,,,
17.036,532,140.4210082,,,
17.04,532,138.9597453,,,
17.044,532,147.8984137,,,
17.048,532,145.5148847,,,
17.052,532,145.8465382,,,
17.056,533,152.9453593,,,
17.06,533,148.1085662,,,
17.064,533,134.5472842,,,
17.068,533,125.8752668,,,
17.072,533,113.9478447,,,
17.076,533,115.1121643,,,
17.08,533,149.6140809,,,
17.084,533,171.8390885,,,
17.088,534,159.7105101,,,
17.092,534,140.8883446,,,
17.096,534,119.8906761,,,
17.1,534,116.9162009,,,
17.104,534,149.6231434,,,
17.108,534,166.7457922,,,
17.112,534,140.5370112,,,
17.116,534,122.8281765,,,
17.12,535,133.9517741,,,
17.124,535,152.83756,,,
17.128,535,148.2335863,,,
17.132,535,133.0489221,,,
17.136,535,162.2839227,,,
17.14,535,184.5706375,,,
17.144,535,169.8908678,,,
17.148,535,167.4644793,,,
17.152,536,164.8774605,,,
17.156,536,155.1945055,,,
17.16,536,149.1396109,,,
17.164,536,139.6288625,,,
17.168,536,153.6759882,,,
17.172,536,174.9985562,,,
17.176,536,155.0912916,,,
17.18,536,152.4727166,,,
17.184,537,177.799054,,,
17.188,537,167.4722787,,,
17.192,537,147.7055761,,,
17.196,537,146.0913046,,,
17.2,537,142.2975331,,,
17.204,537,141.5423823,,,
17.208,537,169.1110401,,,
17.212,537,208.0225871,,,
17.216,538,200.868957,,,
17.22,538,162.7293827,,,
17.224,538,160.7345637,,,
17.228,538,191.706912,,,
17.232,538,207.80745,,,
17.236,538,213.0543999,,,
17.24,538,221.4165281,,,
17.244,538,216.9977187,,,
17.248,539,212.1593377,,,
17.252,539,224.6526628,,,
17.256,539,220.3231712,,,
17.26,539,163.5085842,,,
17.264,539,127.6119813,,,
17.268,539,141.8461229,,,
17.272,539,144.7781742,,,
17.276,539,149.1160106,,,
17.28,540,142.5280722,,,
17.284,540,101.7412277,,,
17.288,540,73.97566574,,,
17.292,540,86.35657176,,,
17.296,540,97.58120375,,,
17.3,540,76.04812234,,,
17.304,540,64.15097235,,,
17.308,540,93.57554268,,,
17.312,541,117.614972,,,
17.316,541,117.4979266,,,
17.32,541,141.8910918,,,
17.324,541,177.9647433,,,
17.328,541,184.6790849,,,
17.332,541,165.8772264,,,
17.336,541,160.4387163,,,
17.34,541,147.9775943,,,
17.344,542,115.2249587,,,
17.348,542,125.8438691,,,
17.352,542,150.1506176,,,
17.356,542,147.8755062,,,
17.36,542,148.3348642,,,
17.364,542,155.937086,,,
17.368,542,171.0312657,,,
17.372,542,174.4065628,,,
17.376,543,152.018712,,,
17.38,543,130.8619839,,,
17.384,543,112.2935349,,,
17.388,543,107.2547698,,,
17.392,543,119.7372953,,,
17.396,543,141.6452797,,,
17.4,543,173.7237688,,,
17.404,543,176.5128816,,,
17.408,544,143.7410325,,,
17.412,544,131.5023859,,,
17.416,544,143.6436162,,,
17.42,544,146.4137884,,,
17.424,544,141.5518087,,,
17.428,544,139.7920042,,,
17.432,544,133.8900341,,,
17.436,544,116.3330471,,,
17.44,545,112.2221356,,,
17.444,545,119.7076733,,,
17.448,545,113.7490693,,,
17.452,545,110.7039538,,,
17.456,545,115.5314196,,,
17.46,545,103.9426459,,,
17.464,545,88.7330227,,,
17.468,545,85.07377016,,,
17.472,546,77.36763199,,,
17.476,546,83.04517275,,,
17.48,546,110.2390283,,,
17.484,546,126.0255926,,,
17.488,546,133.0180239,,,
17.492,546,118.8345118,,,
17.496,546,77.62333804,,,
17.5,546,62.99243154,,,
17.504,547,83.22485725,,,
17.508,547,93.11745665,,,
17.512,547,94.5113663,,,
17.516,547,106.9344162,,,
17.52,547,102.3385499,,,
17.524,547,86.25227731,,,
17.528,547,99.65319862,,,
17.532,547,116.1109196,,,
17.536,548,100.917585,,,
17.54,548,81.93345883,,,
17.544,548,93.29967977,,,
17.548,548,117.3874168,,,
17.552,548,110.7544437,,,
17.556,548,70.43580445,,,
17.56,548,56.99841574,,,
17.564,548,98.72641059,,,
17.568,549,127.4730559,,,
17.572,549,111.2946835,,,
17.576,549,77.19553516,,,
17.58,549,59.99857235,,,
17.584,549,60.07373999,,,
17.588,549,55.53923764,,,
17.592,549,66.84200988,,,
17.596,549,76.61258544,,,
17.6,550,56.9919508,,,
17.604,550,49.82330251,,,
17.608,550,78.68627996,,,
17.612,550,86.27468699,,,
17.616,550,66.72083776,,,
17.62,550,70.49885235,,,
17.624,550,78.03758548,,,
17.628,550,63.66914313,,,
17.632,551,62.12677039,,,
17.636,551,75.89500731,,,
17.64,551,65.08177956,,,
17.644,551,59.62468656,,,
17.648,551,62.35985313,,,
17.652,551,46.28551172,,,
17.656,551,57.49943231,,,
17.66,551,82.82428503,,,
17.664,552,71.43802108,,,
17.668,552,39.36341154,,,
17.672,552,7.13417469,,,
17.676,552,-9.906935121,,,
17.68,552,14.27173655,,,
17.684,552,30.41123648,,,
17.688,552,-6.943880432,,,
17.692,552,-29.05784983,,,
17.696,553,-29.93693145,,,
17.7,553,-36.45430821,,,
17.704,553,-17.46310311,,,
17.708,553,-6.163681154,,,
17.712,553,-25.45173065,,,
17.716,553,-26.94718236,,,
17.72,553,0.153467297,,,
17.724,553,25.60957783,,,
17.728,554,21.45199046,,,
17.732,554,12.01737273,,,
17.736,554,7.997596431,,,
17.74,554,-16.01962146,,,
17.744,554,-32.87453051,,,
17.748,554,-14.86069672,,,
17.752,554,16.72135738,,,
17.756,554,21.96244647,,,
17.76,555,21.55652212,,,
17.764,555,41.27687089,,,
17.768,555,38.3144933,,,
17.772,555,16.17206744,,,
17.776,555,17.90768659,,,
17.78,555,24.81745015,,,
17.784,555,23.62386421,,,
17.788,555,21.10826212,,,
17.792,556,8.647859678,,,
17.796,556,-10.7137397,,,
17.8,556,-31.99401601,,,
17.804,556,-32.7551467,,,
17.808,556,7.606170905,,,
17.812,556,37.07965815,,,
17.816,556,27.28551598,,,
17.82,556,19.51419778,,,
17.824,557,10.19903055,,,
17.828,557,-12.08958631,,,
17.832,557,-23.04691591,,,
17.836,557,-25.94583353,,,
17.84,557,-24.25553816,,,
17.844,557,-12.29068238,,,
17.848,557,-7.532132013,,,
17.852,557,-22.22046738,,,
17.856,558,-35.26581633,,,
17.86,558,-22.87759634,,,
17.864,558,-3.79576618,,,
17.868,558,-12.25307616,,,
17.872,558,-22.45709303,,,
17.876,558,8.95890098,,,
17.88,558,35.58766144,,,
17.884,558,15.013096,,,
17.888,559,-7.15233308,,,
17.892,559,-17.38375665,,,
17.896,559,-34.36480922,,,
17.9,559,-8.5056488,,,
17.904,559,57.29197559,,,
17.908,559,64.17135319,,,
17.912,559,16.70960455,,,
17.916,559,10.31894354,,,
17.92,560,38.17110462,,,
17.924,560,48.52559878,,,
17.928,560,44.13033041,,,
17.932,560,22.89772064,,,
17.936,560,-3.76260455,,,
17.94,560,2.632744176,,,
17.944,560,19.60783675,,,
17.948,560,7.255053049,,,
17.952,561,-3.810390322,,,
17.956,561,2.979941396,,,
17.96,561,6.571507969,,,
17.964,561,23.66750504,,,
17.968,561,51.29241817,,,
17.972,561,31.86846215,,,
17.976,561,-13.34090006,,,
17.98,561,-28.96613666,,,
17.984,562,-28.28508241,,,
17.988,562,-32.6197204,,,
17.992,562,-40.3518466,,,
17.996,562,-30.72346505,,,
18,562,-34.52197633,,,
18.004,562,-40.6121563,,,
18.008,562,-0.39044685,,,
18.012,562,29.61679676,,,
18.016,563,24.52068314,,,
18.02,563,17.73282578,,,
18.024,563,3.597753714,,,
18.028,563,-15.38711639,,,
18.032,563,-16.45091329,,,
18.036,563,-1.321676229,,,
18.04,563,20.70902145,,,
18.044,563,22.89912933,,,
18.048,564,17.03745809,,,
18.052,564,32.02154952,,,
18.056,564,28.5607782,,,
18.06,564,20.67401586,,,
18.064,564,39.63911608,,,
18.068,564,38.72045026,,,
18.072,564,7.582190017,,,
18.076,564,-12.78731267,,,
18.08,565,-12.16951652,,,
18.084,565,-8.897916406,,,
18.088,565,0.903982301,,,
18.092,565,13.09148432,,,
18.096,565,20.54786832,,,
18.1,565,28.81947576,,,
18.104,565,-3.459062664,,,
18.108,565,-56.241426,,,
18.112,566,-66.4036138,,,
18.116,566,-45.14762407,,,
18.12,566,-11.34464074,,,
18.124,566,1.679736502,,,
18.128,566,-22.23582402,,,
18.132,566,-43.93862181,,,
18.136,566,-35.93553313,,,
18.14,566,-21.3990456,,,
18.144,567,-28.63772469,,,
18.148,567,-46.6142934,,,
18.152,567,-64.45775438,,,
18.156,567,-80.63433053,,,
18.16,567,-92.46710747,,,
18.164,567,-68.91378466,,,
18.168,567,-17.06028906,,,
18.172,567,-4.66999978,,,
18.176,568,-30.27406264,,,
18.18,568,-53.37327546,,,
18.184,568,-57.98923308,,,
18.188,568,-40.98149325,,,
18.192,568,-10.94469503,,,
18.196,568,-0.341200397,,,
18.2,568,-19.77675321,,,
18.204,568,-16.18488058,,,
18.208,569,12.72636165,,,
18.212,569,32.52877545,,,
18.216,569,36.30882982,,,
18.22,569,8.458929598,,,
18.224,569,3.102782548,,,
18.228,569,31.54110031,,,
18.232,569,31.7857496,,,
18.236,569,20.58286148,,,
18.24,570,40.81902827,,,
18.244,570,82.46039115,,,
18.248,570,101.3584447,,,
18.252,570,72.31230463,,,
18.256,570,17.86969065,,,
18.26,570,-7.909385233,,,
18.264,570,0.285272805,,,
18.268,570,14.81882743,,,
18.272,571,21.31793545,,,
18.276,571,30.98856811,,,
18.28,571,51.46400407,,,
18.284,571,47.71476034,,,
18.288,571,32.34747072,,,
18.292,571,31.4624707,,,
18.296,571,11.40677981,,,
18.3,571,6.046830398,,,
18.304,572,42.43368825,,,
18.308,572,40.26596129,,,
18.312,572,1.686054739,,,
18.316,572,-11.72299375,,,
18.32,572,-0.694975713,,,
18.324,572,23.34820661,,,
18.328,572,41.22644774,,,
18.332,572,47.45684752,,,
18.336,573,44.08000074,,,
18.34,573,10.564594,,,
18.344,573,-10.37057511,,,
18.348,573,-1.124715196,,,
18.352,573,-6.439568532,,,
18.356,573,7.273210461,,,
18.36,573,28.1632719,,,
18.364,573,11.50691043,,,
18.368,574,10.42326269,,,
18.372,574,34.36768065,,,
18.376,574,56.46526814,,,
18.38,574,69.78904109,,,
18.384,574,78.64765134,,,
18.388,574,86.6239509,,,
18.392,574,64.51150438,,,
18.396,574,33.59612124,,,
18.4,575,11.10211249,,,
18.404,575,-18.61806404,,,
18.408,575,-27.88459809,,,
18.412,575,-0.479004671,,,
18.416,575,55.44865881,,,
18.42,575,71.27044865,,,
18.424,575,6.318195523,,,
18.428,575,-53.03337919,,,
18.432,576,-52.72442266,,,
18.436,576,-18.43832278,,,
18.44,576,-2.963255721,,,
18.444,576,-12.74907883,,,
18.448,576,-18.54445753,,,
18.452,576,-21.7001933,,,
18.456,576,-22.93342952,,,
18.46,576,-14.29137421,,,
18.464,577,6.70714628,,,
18.468,577,9.742447094,,,
18.472,577,-23.25436872,,,
18.476,577,-43.40048781,,,
18.48,577,-43.65844717,,,
18.484,577,-51.31652375,,,
18.488,577,-30.18268844,,,
18.492,577,12.97943701,,,
18.496,578,33.51956747,,,
18.5,578,39.95717212,,,
18.504,578,32.03921301,,,
18.508,578,8.142559283,,,
18.512,578,-14.8384669,,,
18.516,578,-28.65964903,,,
18.52,578,-27.69835266,,,
18.524,578,-17.20189044,,,
18.528,579,10.58020701,,,
18.532,579,45.0058909,,,
18.536,579,61.10121707,,,
18.54,579,57.50988518,,,
18.544,579,25.17152442,,,
18.548,579,-15.50832875,,,
18.552,579,-18.09657423,,,
18.556,579,1.312286118,,,
18.56,580,18.44052306,,,
18.564,580,35.0344336,,,
18.568,580,26.19878297,,,
18.572,580,11.79399085,,,
18.576,580,24.52359124,,,
18.58,580,48.72853299,,,
18.584,580,64.08932368,,,
18.588,580,47.20570304,,,
18.592,581,2.588280983,,,
18.596,581,-27.953268,,,
18.6,581,-37.11846493,,,
18.604,581,-33.10282286,,,
18.608,581,-10.84242803,,,
18.612,581,13.4350572,,,
18.616,581,25.48225729,,,
18.62,581,31.12743734,,,
18.624,582,27.09270216,,,
18.628,582,9.279039036,,,
18.632,582,-5.052669934,,,
18.636,582,10.30889138,,,
18.64,582,52.2222535,,,
18.644,582,64.39410271,,,
18.648,582,16.65333588,,,
18.652,582,-40.60295545,,,
18.656,583,-47.75621129,,,
18.66,583,-10.92313996,,,
18.664,583,30.61641649,,,
18.668,583,53.73102969,,,
18.672,583,56.16916761,,,
18.676,583,39.97402363,,,
18.68,583,-0.418059356,,,
18.684,583,-32.48002291,,,
18.688,584,-26.81595716,,,
18.692,584,-14.14668228,,,
18.696,584,-13.78647693,,,
18.7,584,-12.56830762,,,
18.704,584,-17.02686421,,,
18.708,584,-27.13037548,,,
18.712,584,-8.482933534,,,
18.716,584,17.16533144,,,
18.72,585,21.81068544,,,
18.724,585,16.01161437,,,
18.728,585,5.859000747,,,
18.732,585,22.09008816,,,
18.736,585,40.25174546,,,
18.74,585,20.76726669,,,
18.744,585,2.503619484,,,
18.748,585,5.140383588,,,
18.752,586,-0.177680859,,,
18.756,586,-8.335586606,,,
18.76,586,-6.77097207,,,
18.764,586,-1.095471369,,,
18.768,586,23.9162554,,,
18.772,586,53.55160245,,,
18.776,586,44.51143377,,,
18.78,586,20.1101316,,,
18.784,587,20.15820211,,,
18.788,587,18.99917789,,,
18.792,587,17.78279361,,,
18.796,587,45.71104153,,,
18.8,587,62.53611511,,,
18.804,587,55.25986384,,,
18.808,587,43.46103421,,,
18.812,587,2.152332438,,,
18.816,588,-36.93058787,,,
18.82,588,-29.80293813,,,
18.824,588,-11.72734072,,,
18.828,588,2.615182148,,,
18.832,588,2.901011821,,,
18.836,588,-13.15247924,,,
18.84,588,17.53105996,,,
18.844,588,52.70647588,,,
18.848,589,26.39477748,,,
18.852,589,4.747325617,,,
18.856,589,2.904489234,,,
18.86,589,-16.23642817,,,
18.864,589,-4.837732243,,,
18.868,589,46.3370246,,,
18.872,589,74.1982764,,,
18.876,589,77.12521396,,,
18.88,590,90.52598576,,,
18.884,590,99.21296547,,,
18.888,590,72.31161609,,,
18.892,590,45.08988283,,,
18.896,590,23.92706524,,,
18.9,590,-13.99390423,,,
18.904,590,-27.00921423,,,
18.908,590,-7.915912942,,,
18.912,591,2.415257486,,,
18.916,591,0.184459205,,,
18.92,591,-5.069610083,,,
18.924,591,-9.232858053,,,
18.928,591,7.12711596,,,
18.932,591,33.343634,,,
18.936,591,37.52253484,,,
18.94,591,21.56143438,,,
18.944,592,17.12059651,,,
18.948,592,23.43282548,,,
18.952,592,8.679339492,,,
18.956,592,-15.56272566,,,
18.96,592,1.874206249,,,
18.964,592,46.00761851,,,
18.968,592,36.47451322,,,
18.972,592,22.51598026,,,
18.976,593,57.05693707,,,
18.98,593,59.68734733,,,
18.984,593,35.88623983,,,
18.988,593,43.14995015,,,
18.992,593,47.3397985,,,
18.996,593,26.94882139,,,
19,593,15.76322118,,,
19.004,593,14.90149123,,,
19.008,594,5.817223056,,,
19.012,594,11.05897254,,,
19.016,594,38.48044804,,,
19.02,594,50.87695727,,,
19.024,594,21.61771028,,,
19.028,594,-16.06652125,,,
19.032,594,-5.104657219,,,
19.036,594,9.324339595,,,
19.04,595,-3.4562057,,,
19.044,595,2.97537642,,,
19.048,595,6.33076257,,,
19.052,595,-9.496842782,,,
19.056,595,-0.526838551,,,
19.06,595,7.905155719,,,
19.064,595,-5.518301725,,,
19.068,595,15.50781862,,,
19.072,596,59.60669217,,,
19.076,596,75.03037847,,,
19.08,596,44.4808488,,,
19.084,596,12.85249637,,,
19.088,596,10.00585614,,,
19.092,596,-26.75871102,,,
19.096,596,-74.9785491,,,
