Time:512Hz,Epoch,Electrode,Event Id,Event Date,Event Duration
0.0000000000,0,54.0000000000,,,
0.0019531250,0,2.0000000000,,,
0.0039062500,0,54.0000000000,,,
0.0058593750,0,73.0000000000,,,
0.0078125000,0,-24.0000000000,,,
0.0097656250,0,-89.0000000000,,,
0.0117187500,0,-28.0000000000,,,
0.0136718750,0,49.0000000000,,,
0.0156250000,0,40.0000000000,,,
0.0175781250,0,-36.0000000000,,,
0.0195312500,0,-53.0000000000,,,
0.0214843750,0,-24.0000000000,,,
0.0234375000,0,-46.0000000000,,,
0.0253906250,0,-59.0000000000,,,
0.0273437500,0,9.0000000000,,,
0.0292968750,0,86.0000000000,,,
0.0312500000,0,82.0000000000,,,
0.0332031250,0,-2.0000000000,,,
0.0351562500,0,-57.0000000000,,,
0.0371093750,0,-17.0000000000,,,
0.0390625000,0,3.0000000000,,,
0.0410156250,0,-39.0000000000,,,
0.0429687500,0,-33.0000000000,,,
0.0449218750,0,45.0000000000,,,
0.0468750000,0,85.0000000000,,,
0.0488281250,0,48.0000000000,,,
0.0507812500,0,-33.0000000000,,,
0.0527343750,0,-34.0000000000,,,
0.0546875000,0,32.0000000000,,,
0.0566406250,0,16.0000000000,,,
0.0585937500,0,-34.0000000000,,,
0.0605468750,0,0.0000000000,,,
0.0625000000,1,74.0000000000,,,
0.0644531250,1,80.0000000000,,,
0.0664062500,1,-2.0000000000,,,
0.0683593750,1,-60.0000000000,,,
0.0703125000,1,-26.0000000000,,,
0.0722656250,1,6.0000000000,,,
0.0742187500,1,3.0000000000,,,
0.0761718750,1,51.0000000000,,,
0.0781250000,1,153.0000000000,,,
0.0800781250,1,215.0000000000,,,
0.0820312500,1,165.0000000000,,,
0.0839843750,1,37.0000000000,,,
0.0859375000,1,-8.0000000000,,,
0.0878906250,1,65.0000000000,,,
0.0898437500,1,77.0000000000,,,
0.0917968750,1,23.0000000000,,,
0.0937500000,1,7.0000000000,,,
0.0957031250,1,35.0000000000,,,
0.0976562500,1,42.0000000000,,,
0.0996093750,1,9.0000000000,,,
0.1015625000,1,-23.0000000000,,,
0.1035156250,1,1.0000000000,,,
0.1054687500,1,22.0000000000,,,
0.1074218750,1,-21.0000000000,,,
0.1093750000,1,-36.0000000000,,,
0.1113281250,1,35.0000000000,,,
0.1132812500,1,114.0000000000,,,
0.1152343750,1,108.0000000000,,,
0.1171875000,1,22.0000000000,,,
0.1191406250,1,-27.0000000000,,,
0.1210937500,1,-5.0000000000,,,
0.1230468750,1,-36.0000000000,,,
0.1250000000,2,-109.0000000000,,,
0.1269531250,2,-71.0000000000,,,
0.1289062500,2,71.0000000000,,,
0.1308593750,2,153.0000000000,,,
0.1328125000,2,84.0000000000,,,
0.1347656250,2,-52.0000000000,,,
0.1367187500,2,-82.0000000000,,,
0.1386718750,2,-17.0000000000,,,
0.1406250000,2,-10.0000000000,,,
0.1425781250,2,-24.0000000000,,,
0.1445312500,2,36.0000000000,,,
0.1464843750,2,104.0000000000,,,
0.1484375000,2,88.0000000000,,,
0.1503906250,2,16.0000000000,,,
0.1523437500,2,-26.0000000000,,,
0.1542968750,2,21.0000000000,,,
0.1562500000,2,27.0000000000,,,
0.1582031250,2,-38.0000000000,,,
0.1601562500,2,-20.0000000000,,,
0.1621093750,2,118.0000000000,,,
0.1640625000,2,215.0000000000,,,
0.1660156250,2,163.0000000000,,,
0.1679687500,2,49.0000000000,,,
0.1699218750,2,23.0000000000,,,
0.1718750000,2,96.0000000000,,,
0.1738281250,2,98.0000000000,,,
0.1757812500,2,19.0000000000,,,
0.1777343750,2,13.0000000000,,,
0.1796875000,2,105.0000000000,,,
0.1816406250,2,170.0000000000,,,
0.1835937500,2,138.0000000000,,,
0.1855468750,2,76.0000000000,,,
0.1875000000,3,84.0000000000,,,
0.1894531250,3,91.0000000000,,,
0.1914062500,3,44.0000000000,,,
0.1933593750,3,59.0000000000,,,
0.1953125000,3,176.0000000000,,,
0.1972656250,3,246.0000000000,,,
0.1992187500,3,186.0000000000,,,
0.2011718750,3,58.0000000000,,,
0.2031250000,3,11.0000000000,,,
0.2050781250,3,84.0000000000,,,
0.2070312500,3,124.0000000000,,,
0.2089843750,3,104.0000000000,,,
0.2109375000,3,122.0000000000,,,
0.2128906250,3,202.0000000000,,,
0.2148437500,3,244.0000000000,,,
0.2167968750,3,172.0000000000,,,
0.2187500000,3,70.0000000000,,,
0.2207031250,3,68.0000000000,,,
0.2226562500,3,100.0000000000,,,
0.2246093750,3,75.0000000000,,,
0.2265625000,3,81.0000000000,,,
0.2285156250,3,148.0000000000,,,
0.2304687500,3,194.0000000000,,,
0.2324218750,3,152.0000000000,,,
0.2343750000,3,52.0000000000,,,
0.2363281250,3,-10.0000000000,,,
0.2382812500,3,22.0000000000,,,
0.2402343750,3,55.0000000000,,,
0.2421875000,3,26.0000000000,,,
0.2441406250,3,32.0000000000,,,
0.2460937500,3,121.0000000000,,,
0.2480468750,3,196.0000000000,,,
0.2500000000,4,152.0000000000,,,
0.2519531250,4,52.0000000000,,,
0.2539062500,4,49.0000000000,,,
0.2558593750,4,72.0000000000,,,
0.2578125000,4,3.0000000000,,,
0.2597656250,4,-49.0000000000,,,
0.2617187500,4,24.0000000000,,,
0.2636718750,4,150.0000000000,,,
0.2656250000,4,178.0000000000,,,
0.2675781250,4,89.0000000000,,,
0.2695312500,4,16.0000000000,,,
0.2714843750,4,55.0000000000,,,
0.2734375000,4,70.0000000000,,,
0.2753906250,4,-7.0000000000,,,
0.2773437500,4,-24.0000000000,,,
0.2792968750,4,67.0000000000,,,
0.2812500000,4,135.0000000000,,,
0.2832031250,4,112.0000000000,,,
0.2851562500,4,35.0000000000,,,
0.2871093750,4,35.0000000000,,,
0.2890625000,4,118.0000000000,,,
0.2910156250,4,93.0000000000,,,
0.2929687500,4,24.0000000000,,,
0.2949218750,4,59.0000000000,,,
0.2968750000,4,152.0000000000,,,
0.2988281250,4,162.0000000000,,,
0.3007812500,4,74.0000000000,,,
0.3027343750,4,12.0000000000,,,
0.3046875000,4,52.0000000000,,,
0.3066406250,4,74.0000000000,,,
0.3085937500,4,35.0000000000,,,
0.3105468750,4,33.0000000000,,,
0.3125000000,5,122.0000000000,,,
0.3144531250,5,192.0000000000,,,
0.3164062500,5,156.0000000000,,,
0.3183593750,5,55.0000000000,,,
0.3203125000,5,21.0000000000,,,
0.3222656250,5,64.0000000000,,,
0.3242187500,5,12.0000000000,,,
0.3261718750,5,-53.0000000000,,,
0.3281250000,5,-6.0000000000,,,
0.3300781250,5,90.0000000000,,,
0.3320312500,5,116.0000000000,,,
0.3339843750,5,56.0000000000,,,
0.3359375000,5,-8.0000000000,,,
0.3378906250,5,17.0000000000,,,
0.3398437500,5,65.0000000000,,,
0.3417968750,5,33.0000000000,,,
0.3437500000,5,28.0000000000,,,
0.3457031250,5,107.0000000000,,,
0.3476562500,5,156.0000000000,,,
0.3496093750,5,67.0000000000,,,
0.3515625000,5,-69.0000000000,,,
0.3535156250,5,-84.0000000000,,,
0.3554687500,5,22.0000000000,,,
0.3574218750,5,58.0000000000,,,
0.3593750000,5,2.0000000000,,,
0.3613281250,5,7.0000000000,,,
0.3632812500,5,113.0000000000,,,
0.3652343750,5,165.0000000000,,,
0.3671875000,5,90.0000000000,,,
0.3691406250,5,-17.0000000000,,,
0.3710937500,5,-14.0000000000,,,
0.3730468750,5,41.0000000000,,,
0.3750000000,6,21.0000000000,,,
0.3769531250,6,2.0000000000,,,
0.3789062500,6,85.0000000000,,,
0.3808593750,6,186.0000000000,,,
0.3828125000,6,185.0000000000,,,
0.3847656250,6,98.0000000000,,,
0.3867187500,6,26.0000000000,,,
0.3886718750,6,41.0000000000,,,
0.3906250000,6,25.0000000000,,,
0.3925781250,6,-53.0000000000,,,
0.3945312500,6,-61.0000000000,,,
0.3964843750,6,27.0000000000,,,
0.3984375000,6,87.0000000000,,,
0.4003906250,6,32.0000000000,,,
0.4023437500,6,-52.0000000000,,,
0.4042968750,6,-6.0000000000,,,
0.4062500000,6,100.0000000000,,,
0.4082031250,6,80.0000000000,,,
0.4101562500,6,12.0000000000,,,
0.4121093750,6,75.0000000000,,,
0.4140625000,6,224.0000000000,,,
0.4160156250,6,278.0000000000,,,
0.4179687500,6,163.0000000000,,,
0.4199218750,6,21.0000000000,,,
0.4218750000,6,18.0000000000,,,
0.4238281250,6,37.0000000000,,,
0.4257812500,6,-23.0000000000,,,
0.4277343750,6,-43.0000000000,,,
0.4296875000,6,27.0000000000,,,
0.4316406250,6,89.0000000000,,,
0.4335937500,6,64.0000000000,,,
0.4355468750,6,-11.0000000000,,,
0.4375000000,7,-56.0000000000,,,
0.4394531250,7,-35.0000000000,,,
0.4414062500,7,-45.0000000000,,,
0.4433593750,7,-73.0000000000,,,
0.4453125000,7,-28.0000000000,,,
0.4472656250,7,42.0000000000,,,
0.4492187500,7,50.0000000000,,,
0.4511718750,7,-21.0000000000,,,
0.4531250000,7,-88.0000000000,,,
0.4550781250,7,-60.0000000000,,,
0.4570312500,7,-12.0000000000,,,
0.4589843750,7,-26.0000000000,,,
0.4609375000,7,-34.0000000000,,,
0.4628906250,7,36.0000000000,,,
0.4648437500,7,128.0000000000,,,
0.4667968750,7,134.0000000000,,,
0.4687500000,7,49.0000000000,,,
0.4707031250,7,-11.0000000000,,,
0.4726562500,7,25.0000000000,,,
0.4746093750,7,27.0000000000,,,
0.4765625000,7,-30.0000000000,,,
0.4785156250,7,-26.0000000000,,,
0.4804687500,7,75.0000000000,,,
0.4824218750,7,155.0000000000,,,
0.4843750000,7,104.0000000000,,,
0.4863281250,7,-22.0000000000,,,
0.4882812500,7,-61.0000000000,,,
0.4902343750,7,0.0000000000,,,
0.4921875000,7,26.0000000000,,,
0.4941406250,7,53.0000000000,,,
0.4960937500,7,134.0000000000,,,
0.4980468750,7,208.0000000000,,,
0.5000000000,8,193.0000000000,,,
0.5019531250,8,108.0000000000,,,
0.5039062500,8,59.0000000000,,,
0.5058593750,8,93.0000000000,,,
0.5078125000,8,103.0000000000,,,
0.5097656250,8,57.0000000000,,,
0.5117187500,8,64.0000000000,,,
0.5136718750,8,112.0000000000,,,
0.5156250000,8,106.0000000000,,,
0.5175781250,8,26.0000000000,,,
0.5195312500,8,-58.0000000000,,,
0.5214843750,8,-44.0000000000,,,
0.5234375000,8,41.0000000000,,,
0.5253906250,8,70.0000000000,,,
0.5273437500,8,77.0000000000,,,
0.5292968750,8,152.0000000000,,,
0.5312500000,8,232.0000000000,,,
0.5332031250,8,218.0000000000,,,
0.5351562500,8,118.0000000000,,,
0.5371093750,8,34.0000000000,,,
0.5390625000,8,51.0000000000,,,
0.5410156250,8,65.0000000000,,,
0.5429687500,8,1.0000000000,,,
0.5449218750,8,-38.0000000000,,,
0.5468750000,8,21.0000000000,,,
0.5488281250,8,71.0000000000,,,
0.5507812500,8,21.0000000000,,,
0.5527343750,8,-68.0000000000,,,
0.5546875000,8,-67.0000000000,,,
0.5566406250,8,10.0000000000,,,
0.5585937500,8,1.0000000000,,,
0.5605468750,8,-65.0000000000,,,
0.5625000000,9,-23.0000000000,,,
0.5644531250,9,85.0000000000,,,
0.5664062500,9,116.0000000000,,,
0.5683593750,9,34.0000000000,,,
0.5703125000,9,-65.0000000000,,,
0.5722656250,9,-86.0000000000,,,
0.5742187500,9,-91.0000000000,,,
0.5761718750,9,-148.0000000000,,,
0.5781250000,9,-164.0000000000,,,
0.5800781250,9,-72.0000000000,,,
0.5820312500,9,34.0000000000,,,
0.5839843750,9,20.0000000000,,,
0.5859375000,9,-73.0000000000,,,
0.5878906250,9,-104.0000000000,,,
0.5898437500,9,-44.0000000000,,,
0.5917968750,9,-35.0000000000,,,
0.5937500000,9,-73.0000000000,,,
0.5957031250,9,-23.0000000000,,,
0.5976562500,9,85.0000000000,,,
0.5996093750,9,121.0000000000,,,
0.6015625000,9,54.0000000000,,,
0.6035156250,9,-6.0000000000,,,
0.6054687500,9,45.0000000000,,,
0.6074218750,9,112.0000000000,,,
0.6093750000,9,74.0000000000,,,
0.6113281250,9,18.0000000000,,,
0.6132812500,9,35.0000000000,,,
0.6152343750,9,99.0000000000,,,
0.6171875000,9,118.0000000000,,,
0.6191406250,9,58.0000000000,,,
0.6210937500,9,-33.0000000000,,,
0.6230468750,9,-54.0000000000,,,
0.6250000000,10,-28.0000000000,,,
0.6269531250,10,-13.0000000000,,,
0.6289062500,10,34.0000000000,,,
0.6308593750,10,130.0000000000,,,
0.6328125000,10,177.0000000000,,,
0.6347656250,10,115.0000000000,,,
0.6367187500,10,18.0000000000,,,
0.6386718750,10,18.0000000000,,,
0.6406250000,10,60.0000000000,,,
0.6425781250,10,-18.0000000000,,,
0.6445312500,10,-133.0000000000,,,
0.6464843750,10,-99.0000000000,,,
0.6484375000,10,22.0000000000,,,
0.6503906250,10,76.0000000000,,,
0.6523437500,10,43.0000000000,,,
0.6542968750,10,0.0000000000,,,
0.6562500000,10,10.0000000000,,,
0.6582031250,10,11.0000000000,,,
0.6601562500,10,-37.0000000000,,,
0.6621093750,10,-25.0000000000,,,
0.6640625000,10,66.0000000000,,,
0.6660156250,10,121.0000000000,,,
0.6679687500,10,85.0000000000,,,
0.6699218750,10,2.0000000000,,,
0.6718750000,10,-2.0000000000,,,
0.6738281250,10,53.0000000000,,,
0.6757812500,10,26.0000000000,,,
0.6777343750,10,-23.0000000000,,,
0.6796875000,10,9.0000000000,,,
0.6816406250,10,99.0000000000,,,
0.6835937500,10,119.0000000000,,,
0.6855468750,10,35.0000000000,,,
0.6875000000,11,-62.0000000000,,,
0.6894531250,11,-51.0000000000,,,
0.6914062500,11,-27.0000000000,,,
0.6933593750,11,-69.0000000000,,,
0.6953125000,11,-52.0000000000,,,
0.6972656250,11,48.0000000000,,,
0.6992187500,11,113.0000000000,,,
0.7011718750,11,75.0000000000,,,
0.7031250000,11,-56.0000000000,,,
0.7050781250,11,-147.0000000000,,,
0.7070312500,11,-126.0000000000,,,
0.7089843750,11,-118.0000000000,,,
0.7109375000,11,-148.0000000000,,,
0.7128906250,11,-105.0000000000,,,
0.7148437500,11,6.0000000000,,,
0.7167968750,11,52.0000000000,,,
0.7187500000,11,-6.0000000000,,,
0.7207031250,11,-71.0000000000,,,
0.7226562500,11,-21.0000000000,,,
0.7246093750,11,28.0000000000,,,
0.7265625000,11,-38.0000000000,,,
0.7285156250,11,-101.0000000000,,,
0.7304687500,11,-33.0000000000,,,
0.7324218750,11,65.0000000000,,,
0.7343750000,11,39.0000000000,,,
0.7363281250,11,-76.0000000000,,,
0.7382812500,11,-137.0000000000,,,
0.7402343750,11,-94.0000000000,,,
0.7421875000,11,-89.0000000000,,,
0.7441406250,11,-148.0000000000,,,
0.7460937500,11,-139.0000000000,,,
0.7480468750,11,-38.0000000000,,,
0.7500000000,12,8.0000000000,,,
0.7519531250,12,-44.0000000000,,,
0.7539062500,12,-113.0000000000,,,
0.7558593750,12,-85.0000000000,,,
0.7578125000,12,-29.0000000000,,,
0.7597656250,12,-90.0000000000,,,
0.7617187500,12,-153.0000000000,,,
0.7636718750,12,-115.0000000000,,,
0.7656250000,12,-26.0000000000,,,
0.7675781250,12,-8.0000000000,,,
0.7695312500,12,-88.0000000000,,,
0.7714843750,12,-157.0000000000,,,
0.7734375000,12,-123.0000000000,,,
0.7753906250,12,-92.0000000000,,,
0.7773437500,12,-157.0000000000,,,
0.7792968750,12,-177.0000000000,,,
0.7812500000,12,-54.0000000000,,,
0.7832031250,12,75.0000000000,,,
0.7851562500,12,93.0000000000,,,
0.7871093750,12,5.0000000000,,,
0.7890625000,12,-33.0000000000,,,
0.7910156250,12,12.0000000000,,,
0.7929687500,12,6.0000000000,,,
0.7949218750,12,-52.0000000000,,,
0.7968750000,12,-36.0000000000,,,
0.7988281250,12,55.0000000000,,,
0.8007812500,12,69.0000000000,,,
0.8027343750,12,-62.0000000000,,,
0.8046875000,12,-178.0000000000,,,
0.8066406250,12,-140.0000000000,,,
0.8085937500,12,-34.0000000000,,,
0.8105468750,12,1.0000000000,,,
0.8125000000,13,12.0000000000,,,
0.8144531250,13,82.0000000000,,,
0.8164062500,13,134.0000000000,,,
0.8183593750,13,90.0000000000,,,
0.8203125000,13,-4.0000000000,,,
0.8222656250,13,-40.0000000000,,,
0.8242187500,13,12.0000000000,,,
0.8261718750,13,-3.0000000000,,,
0.8281250000,13,-82.0000000000,,,
0.8300781250,13,-56.0000000000,,,
0.8320312500,13,44.0000000000,,,
0.8339843750,13,85.0000000000,,,
0.8359375000,13,-2.0000000000,,,
0.8378906250,13,-109.0000000000,,,
0.8398437500,13,-92.0000000000,,,
0.8417968750,13,-23.0000000000,,,
0.8437500000,13,-41.0000000000,,,
0.8457031250,13,-59.0000000000,,,
0.8476562500,13,4.0000000000,,,
0.8496093750,13,72.0000000000,,,
0.8515625000,13,43.0000000000,,,
0.8535156250,13,-73.0000000000,,,
0.8554687500,13,-122.0000000000,,,
0.8574218750,13,-50.0000000000,,,
0.8593750000,13,-38.0000000000,,,
0.8613281250,13,-104.0000000000,,,
0.8632812500,13,-82.0000000000,,,
0.8652343750,13,37.0000000000,,,
0.8671875000,13,124.0000000000,,,
0.8691406250,13,92.0000000000,,,
0.8710937500,13,-6.0000000000,,,
0.8730468750,13,-25.0000000000,,,
0.8750000000,14,3.0000000000,,,
0.8769531250,14,-40.0000000000,,,
0.8789062500,14,-86.0000000000,,,
0.8808593750,14,-29.0000000000,,,
0.8828125000,14,84.0000000000,,,
0.8847656250,14,135.0000000000,,,
0.8867187500,14,82.0000000000,,,
0.8886718750,14,23.0000000000,,,
0.8906250000,14,59.0000000000,,,
0.8925781250,14,75.0000000000,,,
0.8945312500,14,21.0000000000,,,
0.8964843750,14,25.0000000000,,,
0.8984375000,14,138.0000000000,,,
0.9003906250,14,208.0000000000,,,
0.9023437500,14,161.0000000000,,,
0.9042968750,14,54.0000000000,,,
0.9062500000,14,10.0000000000,,,
0.9082031250,14,43.0000000000,,,
0.9101562500,14,10.0000000000,,,
0.9121093750,14,-49.0000000000,,,
0.9140625000,14,-19.0000000000,,,
0.9160156250,14,71.0000000000,,,
0.9179687500,14,97.0000000000,,,
0.9199218750,14,25.0000000000,,,
0.9218750000,14,-30.0000000000,,,
0.9238281250,14,5.0000000000,,,
0.9257812500,14,40.0000000000,,,
0.9277343750,14,20.0000000000,,,
0.9296875000,14,43.0000000000,,,
0.9316406250,14,148.0000000000,,,
0.9335937500,14,210.0000000000,,,
0.9355468750,14,151.0000000000,,,
0.9375000000,15,24.0000000000,,,
0.9394531250,15,-5.0000000000,,,
0.9414062500,15,68.0000000000,,,
0.9433593750,15,71.0000000000,,,
0.9453125000,15,-6.0000000000,,,
0.9472656250,15,-22.0000000000,,,
0.9492187500,15,40.0000000000,,,
0.9511718750,15,92.0000000000,,,
0.9531250000,15,59.0000000000,,,
0.9550781250,15,-12.0000000000,,,
0.9570312500,15,-2.0000000000,,,
0.9589843750,15,39.0000000000,,,
0.9609375000,15,34.0000000000,,,
0.9628906250,15,39.0000000000,,,
0.9648437500,15,123.0000000000,,,
0.9667968750,15,201.0000000000,,,
0.9687500000,15,155.0000000000,,,
0.9707031250,15,10.0000000000,,,
0.9726562500,15,-57.0000000000,,,
0.9746093750,15,-7.0000000000,,,
0.9765625000,15,-1.0000000000,,,
0.9785156250,15,-42.0000000000,,,
0.9804687500,15,-23.0000000000,,,
0.9824218750,15,38.0000000000,,,
0.9843750000,15,57.0000000000,,,
0.9863281250,15,12.0000000000,,,
0.9882812500,15,-55.0000000000,,,
0.9902343750,15,-37.0000000000,,,
0.9921875000,15,50.0000000000,,,
0.9941406250,15,44.0000000000,,,
0.9960937500,15,-4.0000000000,,,
0.9980468750,15,48.0000000000,,,
1.0000000000,16,161.0000000000,,,
1.0019531250,16,192.0000000000,,,
1.0039062500,16,96.0000000000,,,
1.0058593750,16,-14.0000000000,,,
1.0078125000,16,-22.0000000000,,,
1.0097656250,16,-17.0000000000,,,
1.0117187500,16,-60.0000000000,,,
1.0136718750,16,-52.0000000000,,,
1.0156250000,16,33.0000000000,,,
1.0175781250,16,82.0000000000,,,
1.0195312500,16,42.0000000000,,,
1.0214843750,16,-26.0000000000,,,
1.0234375000,16,-43.0000000000,,,
1.0253906250,16,6.0000000000,,,
1.0273437500,16,17.0000000000,,,
1.0292968750,16,-4.0000000000,,,
1.0312500000,16,36.0000000000,,,
1.0332031250,16,115.0000000000,,,
1.0351562500,16,130.0000000000,,,
1.0371093750,16,53.0000000000,,,
1.0390625000,16,-27.0000000000,,,
1.0410156250,16,-17.0000000000,,,
1.0429687500,16,-2.0000000000,,,
1.0449218750,16,-54.0000000000,,,
1.0468750000,16,-37.0000000000,,,
1.0488281250,16,71.0000000000,,,
1.0507812500,16,153.0000000000,,,
1.0527343750,16,122.0000000000,,,
1.0546875000,16,21.0000000000,,,
1.0566406250,16,-6.0000000000,,,
1.0585937500,16,29.0000000000,,,
1.0605468750,16,-18.0000000000,,,
1.0625000000,17,-74.0000000000,,,
1.0644531250,17,-21.0000000000,,,
1.0664062500,17,101.0000000000,,,
1.0683593750,17,148.0000000000,,,
1.0703125000,17,65.0000000000,,,
1.0722656250,17,-13.0000000000,,,
1.0742187500,17,20.0000000000,,,
1.0761718750,17,88.0000000000,,,
1.0781250000,17,41.0000000000,,,
1.0800781250,17,0.0000000000,,,
1.0820312500,17,71.0000000000,,,
1.0839843750,17,137.0000000000,,,
1.0859375000,17,69.0000000000,,,
1.0878906250,17,-78.0000000000,,,
1.0898437500,17,-117.0000000000,,,
1.0917968750,17,-21.0000000000,,,
1.0937500000,17,11.0000000000,,,
1.0957031250,17,-22.0000000000,,,
1.0976562500,17,4.0000000000,,,
1.0996093750,17,116.0000000000,,,
1.1015625000,17,169.0000000000,,,
1.1035156250,17,104.0000000000,,,
1.1054687500,17,20.0000000000,,,
1.1074218750,17,36.0000000000,,,
1.1093750000,17,91.0000000000,,,
1.1113281250,17,67.0000000000,,,
1.1132812500,17,27.0000000000,,,
1.1152343750,17,73.0000000000,,,
1.1171875000,17,137.0000000000,,,
1.1191406250,17,122.0000000000,,,
1.1210937500,17,41.0000000000,,,
1.1230468750,17,-6.0000000000,,,
1.1250000000,18,36.0000000000,,,
1.1269531250,18,58.0000000000,,,
1.1289062500,18,11.0000000000,,,
1.1308593750,18,17.0000000000,,,
1.1328125000,18,102.0000000000,,,
1.1347656250,18,148.0000000000,,,
1.1367187500,18,101.0000000000,,,
1.1386718750,18,18.0000000000,,,
1.1406250000,18,11.0000000000,,,
1.1425781250,18,86.0000000000,,,
1.1445312500,18,74.0000000000,,,
1.1464843750,18,22.0000000000,,,
1.1484375000,18,64.0000000000,,,
1.1503906250,18,151.0000000000,,,
1.1523437500,18,169.0000000000,,,
1.1542968750,18,83.0000000000,,,
1.1562500000,18,-5.0000000000,,,
1.1582031250,18,-1.0000000000,,,
1.1601562500,18,26.0000000000,,,
1.1621093750,18,9.0000000000,,,
1.1640625000,18,28.0000000000,,,
1.1660156250,18,135.0000000000,,,
1.1679687500,18,230.0000000000,,,
1.1699218750,18,214.0000000000,,,
1.1718750000,18,114.0000000000,,,
1.1738281250,18,66.0000000000,,,
1.1757812500,18,113.0000000000,,,
1.1777343750,18,116.0000000000,,,
1.1796875000,18,60.0000000000,,,
1.1816406250,18,75.0000000000,,,
1.1835937500,18,153.0000000000,,,
1.1855468750,18,168.0000000000,,,
1.1875000000,19,60.0000000000,,,
1.1894531250,19,-51.0000000000,,,
1.1914062500,19,-25.0000000000,,,
1.1933593750,19,27.0000000000,,,
1.1953125000,19,-24.0000000000,,,
1.1972656250,19,-75.0000000000,,,
1.1992187500,19,10.0000000000,,,
1.2011718750,19,139.0000000000,,,
1.2031250000,19,160.0000000000,,,
1.2050781250,19,89.0000000000,,,
1.2070312500,19,60.0000000000,,,
1.2089843750,19,98.0000000000,,,
1.2109375000,19,89.0000000000,,,
1.2128906250,19,42.0000000000,,,
1.2148437500,19,69.0000000000,,,
1.2167968750,19,154.0000000000,,,
1.2187500000,19,166.0000000000,,,
1.2207031250,19,49.0000000000,,,
1.2226562500,19,-76.0000000000,,,
1.2246093750,19,-81.0000000000,,,
1.2265625000,19,-39.0000000000,,,
1.2285156250,19,-75.0000000000,,,
1.2304687500,19,-91.0000000000,,,
1.2324218750,19,0.0000000000,,,
1.2343750000,19,96.0000000000,,,
1.2363281250,19,82.0000000000,,,
1.2382812500,19,-22.0000000000,,,
1.2402343750,19,-85.0000000000,,,
1.2421875000,19,-41.0000000000,,,
1.2441406250,19,-26.0000000000,,,
1.2460937500,19,-67.0000000000,,,
1.2480468750,19,-43.0000000000,,,
1.2500000000,20,35.0000000000,,,
1.2519531250,20,92.0000000000,,,
1.2539062500,20,73.0000000000,,,
1.2558593750,20,23.0000000000,,,
1.2578125000,20,16.0000000000,,,
1.2597656250,20,23.0000000000,,,
1.2617187500,20,-34.0000000000,,,
1.2636718750,20,-62.0000000000,,,
1.2656250000,20,10.0000000000,,,
1.2675781250,20,119.0000000000,,,
1.2695312500,20,128.0000000000,,,
1.2714843750,20,28.0000000000,,,
1.2734375000,20,-25.0000000000,,,
1.2753906250,20,50.0000000000,,,
1.2773437500,20,116.0000000000,,,
1.2792968750,20,64.0000000000,,,
1.2812500000,20,40.0000000000,,,
1.2832031250,20,125.0000000000,,,
1.2851562500,20,192.0000000000,,,
1.2871093750,20,155.0000000000,,,
1.2890625000,20,55.0000000000,,,
1.2910156250,20,13.0000000000,,,
1.2929687500,20,53.0000000000,,,
1.2949218750,20,24.0000000000,,,
1.2968750000,20,-22.0000000000,,,
1.2988281250,20,17.0000000000,,,
1.3007812500,20,105.0000000000,,,
1.3027343750,20,131.0000000000,,,
1.3046875000,20,55.0000000000,,,
1.3066406250,20,-30.0000000000,,,
1.3085937500,20,-20.0000000000,,,
1.3105468750,20,24.0000000000,,,
1.3125000000,21,-2.0000000000,,,
1.3144531250,21,-35.0000000000,,,
1.3164062500,21,13.0000000000,,,
1.3183593750,21,92.0000000000,,,
1.3203125000,21,57.0000000000,,,
1.3222656250,21,-70.0000000000,,,
1.3242187500,21,-124.0000000000,,,
1.3261718750,21,-58.0000000000,,,
1.3281250000,21,-21.0000000000,,,
1.3300781250,21,-51.0000000000,,,
1.3320312500,21,-35.0000000000,,,
1.3339843750,21,54.0000000000,,,
1.3359375000,21,122.0000000000,,,
1.3378906250,21,83.0000000000,,,
1.3398437500,21,-9.0000000000,,,
1.3417968750,21,-24.0000000000,,,
1.3437500000,21,13.0000000000,,,
1.3457031250,21,-12.0000000000,,,
1.3476562500,21,-27.0000000000,,,
1.3496093750,21,40.0000000000,,,
1.3515625000,21,87.0000000000,,,
1.3535156250,21,18.0000000000,,,
1.3554687500,21,-74.0000000000,,,
1.3574218750,21,-71.0000000000,,,
1.3593750000,21,29.0000000000,,,
1.3613281250,21,44.0000000000,,,
1.3632812500,21,-33.0000000000,,,
1.3652343750,21,-26.0000000000,,,
1.3671875000,21,103.0000000000,,,
1.3691406250,21,229.0000000000,,,
1.3710937500,21,199.0000000000,,,
1.3730468750,21,66.0000000000,,,
1.3750000000,22,26.0000000000,,,
1.3769531250,22,81.0000000000,,,
1.3789062500,22,57.0000000000,,,
1.3808593750,22,2.0000000000,,,
1.3828125000,22,36.0000000000,,,
1.3847656250,22,138.0000000000,,,
1.3867187500,22,186.0000000000,,,
1.3886718750,22,119.0000000000,,,
1.3906250000,22,25.0000000000,,,
1.3925781250,22,10.0000000000,,,
1.3945312500,22,16.0000000000,,,
1.3964843750,22,-26.0000000000,,,
1.3984375000,22,-21.0000000000,,,
1.4003906250,22,80.0000000000,,,
1.4023437500,22,154.0000000000,,,
1.4042968750,22,121.0000000000,,,
1.4062500000,22,7.0000000000,,,
1.4082031250,22,-39.0000000000,,,
1.4101562500,22,5.0000000000,,,
1.4121093750,22,-14.0000000000,,,
1.4140625000,22,-105.0000000000,,,
1.4160156250,22,-105.0000000000,,,
1.4179687500,22,12.0000000000,,,
1.4199218750,22,75.0000000000,,,
1.4218750000,22,10.0000000000,,,
1.4238281250,22,-56.0000000000,,,
1.4257812500,22,-4.0000000000,,,
1.4277343750,22,45.0000000000,,,
1.4296875000,22,-23.0000000000,,,
1.4316406250,22,-71.0000000000,,,
1.4335937500,22,23.0000000000,,,
1.4355468750,22,131.0000000000,,,
1.4375000000,23,114.0000000000,,,
1.4394531250,23,9.0000000000,,,
1.4414062500,23,-22.0000000000,,,
1.4433593750,23,41.0000000000,,,
1.4453125000,23,38.0000000000,,,
1.4472656250,23,-18.0000000000,,,
1.4492187500,23,3.0000000000,,,
1.4511718750,23,72.0000000000,,,
1.4531250000,23,77.0000000000,,,
1.4550781250,23,-4.0000000000,,,
1.4570312500,23,-71.0000000000,,,
1.4589843750,23,-39.0000000000,,,
1.4609375000,23,16.0000000000,,,
1.4628906250,23,-11.0000000000,,,
1.4648437500,23,-53.0000000000,,,
1.4667968750,23,-21.0000000000,,,
1.4687500000,23,77.0000000000,,,
1.4707031250,23,137.0000000000,,,
1.4726562500,23,84.0000000000,,,
1.4746093750,23,18.0000000000,,,
1.4765625000,23,21.0000000000,,,
1.4785156250,23,6.0000000000,,,
1.4804687500,23,-33.0000000000,,,
1.4824218750,23,10.0000000000,,,
1.4843750000,23,148.0000000000,,,
1.4863281250,23,226.0000000000,,,
1.4882812500,23,171.0000000000,,,
1.4902343750,23,52.0000000000,,,
1.4921875000,23,13.0000000000,,,
1.4941406250,23,80.0000000000,,,
1.4960937500,23,77.0000000000,,,
1.4980468750,23,42.0000000000,,,
1.5000000000,24,114.0000000000,,,
1.5019531250,24,226.0000000000,,,
1.5039062500,24,220.0000000000,,,
1.5058593750,24,116.0000000000,,,
1.5078125000,24,20.0000000000,,,
1.5097656250,24,27.0000000000,,,
1.5117187500,24,43.0000000000,,,
1.5136718750,24,-17.0000000000,,,
1.5156250000,24,-36.0000000000,,,
1.5175781250,24,43.0000000000,,,
1.5195312500,24,89.0000000000,,,
1.5214843750,24,16.0000000000,,,
1.5234375000,24,-105.0000000000,,,
1.5253906250,24,-118.0000000000,,,
1.5273437500,24,-56.0000000000,,,
1.5292968750,24,-98.0000000000,,,
1.5312500000,24,-185.0000000000,,,
1.5332031250,24,-154.0000000000,,,
1.5351562500,24,-20.0000000000,,,
1.5371093750,24,52.0000000000,,,
1.5390625000,24,-13.0000000000,,,
1.5410156250,24,-97.0000000000,,,
1.5429687500,24,-50.0000000000,,,
1.5449218750,24,13.0000000000,,,
1.5468750000,24,-2.0000000000,,,
1.5488281250,24,-19.0000000000,,,
1.5507812500,24,61.0000000000,,,
1.5527343750,24,146.0000000000,,,
1.5546875000,24,128.0000000000,,,
1.5566406250,24,42.0000000000,,,
1.5585937500,24,27.0000000000,,,
1.5605468750,24,81.0000000000,,,
1.5625000000,25,72.0000000000,,,
1.5644531250,25,18.0000000000,,,
1.5664062500,25,51.0000000000,,,
1.5683593750,25,137.0000000000,,,
1.5703125000,25,152.0000000000,,,
1.5722656250,25,67.0000000000,,,
1.5742187500,25,-28.0000000000,,,
1.5761718750,25,-26.0000000000,,,
1.5781250000,25,18.0000000000,,,
1.5800781250,25,11.0000000000,,,
1.5820312500,25,6.0000000000,,,
1.5839843750,25,57.0000000000,,,
1.5859375000,25,128.0000000000,,,
1.5878906250,25,108.0000000000,,,
1.5898437500,25,7.0000000000,,,
1.5917968750,25,-62.0000000000,,,
1.5937500000,25,-28.0000000000,,,
1.5957031250,25,-5.0000000000,,,
1.5976562500,25,-57.0000000000,,,
1.5996093750,25,-60.0000000000,,,
1.6015625000,25,44.0000000000,,,
1.6035156250,25,131.0000000000,,,
1.6054687500,25,96.0000000000,,,
1.6074218750,25,-4.0000000000,,,
1.6093750000,25,-35.0000000000,,,
1.6113281250,25,-2.0000000000,,,
1.6132812500,25,-37.0000000000,,,
1.6152343750,25,-82.0000000000,,,
1.6171875000,25,-28.0000000000,,,
1.6191406250,25,51.0000000000,,,
1.6210937500,25,40.0000000000,,,
1.6230468750,25,-33.0000000000,,,
1.6250000000,26,-53.0000000000,,,
1.6269531250,26,27.0000000000,,,
1.6289062500,26,45.0000000000,,,
1.6308593750,26,-25.0000000000,,,
1.6328125000,26,-25.0000000000,,,
1.6347656250,26,64.0000000000,,,
1.6367187500,26,117.0000000000,,,
1.6386718750,26,52.0000000000,,,
1.6406250000,26,-71.0000000000,,,
1.6425781250,26,-93.0000000000,,,
1.6445312500,26,-39.0000000000,,,
1.6464843750,26,-62.0000000000,,,
1.6484375000,26,-129.0000000000,,,
1.6503906250,26,-87.0000000000,,,
1.6523437500,26,38.0000000000,,,
1.6542968750,26,108.0000000000,,,
1.6562500000,26,52.0000000000,,,
1.6582031250,26,-50.0000000000,,,
1.6601562500,26,-58.0000000000,,,
1.6621093750,26,-38.0000000000,,,
1.6640625000,26,-72.0000000000,,,
1.6660156250,26,-74.0000000000,,,
1.6679687500,26,16.0000000000,,,
1.6699218750,26,88.0000000000,,,
1.6718750000,26,42.0000000000,,,
1.6738281250,26,-74.0000000000,,,
1.6757812500,26,-115.0000000000,,,
1.6777343750,26,-55.0000000000,,,
1.6796875000,26,-44.0000000000,,,
1.6816406250,26,-74.0000000000,,,
1.6835937500,26,-45.0000000000,,,
1.6855468750,26,35.0000000000,,,
1.6875000000,27,74.0000000000,,,
1.6894531250,27,34.0000000000,,,
1.6914062500,27,-42.0000000000,,,
1.6933593750,27,-30.0000000000,,,
1.6953125000,27,5.0000000000,,,
1.6972656250,27,-40.0000000000,,,
1.6992187500,27,-81.0000000000,,,
1.7011718750,27,-24.0000000000,,,
1.7031250000,27,65.0000000000,,,
1.7050781250,27,65.0000000000,,,
1.7070312500,27,-45.0000000000,,,
1.7089843750,27,-145.0000000000,,,
1.7109375000,27,-117.0000000000,,,
1.7128906250,27,-91.0000000000,,,
1.7148437500,27,-122.0000000000,,,
1.7167968750,27,-85.0000000000,,,
1.7187500000,27,23.0000000000,,,
1.7207031250,27,72.0000000000,,,
1.7226562500,27,5.0000000000,,,
1.7246093750,27,-89.0000000000,,,
1.7265625000,27,-75.0000000000,,,
1.7285156250,27,-13.0000000000,,,
1.7304687500,27,-71.0000000000,,,
1.7324218750,27,-142.0000000000,,,
1.7343750000,27,-83.0000000000,,,
1.7363281250,27,27.0000000000,,,
1.7382812500,27,82.0000000000,,,
1.7402343750,27,57.0000000000,,,
1.7421875000,27,28.0000000000,,,
1.7441406250,27,54.0000000000,,,
1.7460937500,27,52.0000000000,,,
1.7480468750,27,1.0000000000,,,
1.7500000000,28,6.0000000000,,,
1.7519531250,28,102.0000000000,,,
1.7539062500,28,169.0000000000,,,
1.7558593750,28,144.0000000000,,,
1.7578125000,28,52.0000000000,,,
1.7597656250,28,11.0000000000,,,
1.7617187500,28,41.0000000000,,,
1.7636718750,28,18.0000000000,,,
1.7656250000,28,-13.0000000000,,,
1.7675781250,28,59.0000000000,,,
1.7695312500,28,169.0000000000,,,
1.7714843750,28,177.0000000000,,,
1.7734375000,28,67.0000000000,,,
1.7753906250,28,-21.0000000000,,,
1.7773437500,28,11.0000000000,,,
1.7792968750,28,65.0000000000,,,
1.7812500000,28,28.0000000000,,,
1.7832031250,28,1.0000000000,,,
1.7851562500,28,49.0000000000,,,
1.7871093750,28,99.0000000000,,,
1.7890625000,28,81.0000000000,,,
1.7910156250,28,-3.0000000000,,,
1.7929687500,28,-54.0000000000,,,
1.7949218750,28,-33.0000000000,,,
1.7968750000,28,-65.0000000000,,,
1.7988281250,28,-134.0000000000,,,
1.8007812500,28,-100.0000000000,,,
1.8027343750,28,-2.0000000000,,,
1.8046875000,28,29.0000000000,,,
1.8066406250,28,-41.0000000000,,,
1.8085937500,28,-124.0000000000,,,
1.8105468750,28,-119.0000000000,,,
1.8125000000,29,-68.0000000000,,,
1.8144531250,29,-60.0000000000,,,
1.8164062500,29,-37.0000000000,,,
1.8183593750,29,48.0000000000,,,
1.8203125000,29,119.0000000000,,,
1.8222656250,29,107.0000000000,,,
1.8242187500,29,23.0000000000,,,
1.8261718750,29,-27.0000000000,,,
1.8281250000,29,24.0000000000,,,
1.8300781250,29,74.0000000000,,,
1.8320312500,29,64.0000000000,,,
1.8339843750,29,56.0000000000,,,
1.8359375000,29,113.0000000000,,,
1.8378906250,29,182.0000000000,,,
1.8398437500,29,171.0000000000,,,
1.8417968750,29,107.0000000000,,,
1.8437500000,29,96.0000000000,,,
1.8457031250,29,100.0000000000,,,
1.8476562500,29,36.0000000000,,,
1.8496093750,29,8.0000000000,,,
1.8515625000,29,89.0000000000,,,
1.8535156250,29,185.0000000000,,,
1.8554687500,29,188.0000000000,,,
1.8574218750,29,109.0000000000,,,
1.8593750000,29,65.0000000000,,,
1.8613281250,29,109.0000000000,,,
1.8632812500,29,109.0000000000,,,
1.8652343750,29,18.0000000000,,,
1.8671875000,29,1.0000000000,,,
1.8691406250,29,96.0000000000,,,
1.8710937500,29,168.0000000000,,,
1.8730468750,29,148.0000000000,,,
1.8750000000,30,65.0000000000,,,
1.8769531250,30,42.0000000000,,,
1.8789062500,30,74.0000000000,,,
1.8808593750,30,32.0000000000,,,
1.8828125000,30,-5.0000000000,,,
1.8847656250,30,69.0000000000,,,
1.8867187500,30,173.0000000000,,,
1.8886718750,30,171.0000000000,,,
1.8906250000,30,70.0000000000,,,
1.8925781250,30,-1.0000000000,,,
1.8945312500,30,44.0000000000,,,
1.8964843750,30,82.0000000000,,,
1.8984375000,30,11.0000000000,,,
1.9003906250,30,9.0000000000,,,
1.9023437500,30,123.0000000000,,,
1.9042968750,30,208.0000000000,,,
1.9062500000,30,150.0000000000,,,
1.9082031250,30,0.0000000000,,,
1.9101562500,30,-53.0000000000,,,
1.9121093750,30,22.0000000000,,,
1.9140625000,30,38.0000000000,,,
1.9160156250,30,-22.0000000000,,,
1.9179687500,30,-18.0000000000,,,
1.9199218750,30,65.0000000000,,,
1.9218750000,30,97.0000000000,,,
1.9238281250,30,27.0000000000,,,
1.9257812500,30,-42.0000000000,,,
1.9277343750,30,-20.0000000000,,,
1.9296875000,30,27.0000000000,,,
1.9316406250,30,-13.0000000000,,,
1.9335937500,30,-67.0000000000,,,
1.9355468750,30,-23.0000000000,,,
1.9375000000,31,72.0000000000,,,
1.9394531250,31,112.0000000000,,,
1.9414062500,31,45.0000000000,,,
1.9433593750,31,-13.0000000000,,,
1.9453125000,31,11.0000000000,,,
1.9472656250,31,24.0000000000,,,
1.9492187500,31,-11.0000000000,,,
1.9511718750,31,2.0000000000,,,
1.9531250000,31,76.0000000000,,,
1.9550781250,31,102.0000000000,,,
1.9570312500,31,53.0000000000,,,
1.9589843750,31,-12.0000000000,,,
1.9609375000,31,-24.0000000000,,,
1.9628906250,31,11.0000000000,,,
1.9648437500,31,-17.0000000000,,,
1.9667968750,31,-58.0000000000,,,
1.9687500000,31,-2.0000000000,,,
1.9707031250,31,104.0000000000,,,
1.9726562500,31,152.0000000000,,,
1.9746093750,31,98.0000000000,,,
1.9765625000,31,12.0000000000,,,
1.9785156250,31,9.0000000000,,,
1.9804687500,31,16.0000000000,,,
1.9824218750,31,-34.0000000000,,,
1.9843750000,31,-35.0000000000,,,
1.9863281250,31,54.0000000000,,,
1.9882812500,31,104.0000000000,,,
1.9902343750,31,59.0000000000,,,
1.9921875000,31,-24.0000000000,,,
1.9941406250,31,-40.0000000000,,,
1.9960937500,31,12.0000000000,,,
1.9980468750,31,8.0000000000,,,
2.0000000000,32,-25.0000000000,,,
2.0019531250,32,-5.0000000000,,,
2.0039062500,32,44.0000000000,,,
2.0058593750,32,42.0000000000,,,
2.0078125000,32,-41.0000000000,,,
2.0097656250,32,-113.0000000000,,,
2.0117187500,32,-76.0000000000,,,
2.0136718750,32,-11.0000000000,,,
2.0156250000,32,-25.0000000000,,,
2.0175781250,32,-17.0000000000,,,
2.0195312500,32,86.0000000000,,,
2.0214843750,32,182.0000000000,,,
2.0234375000,32,165.0000000000,,,
2.0253906250,32,64.0000000000,,,
2.0273437500,32,12.0000000000,,,
2.0292968750,32,60.0000000000,,,
2.0312500000,32,48.0000000000,,,
2.0332031250,32,-12.0000000000,,,
2.0351562500,32,28.0000000000,,,
2.0371093750,32,166.0000000000,,,
2.0390625000,32,225.0000000000,,,
2.0410156250,32,152.0000000000,,,
2.0429687500,32,52.0000000000,,,
2.0449218750,32,52.0000000000,,,
2.0468750000,32,86.0000000000,,,
2.0488281250,32,56.0000000000,,,
2.0507812500,32,54.0000000000,,,
2.0527343750,32,144.0000000000,,,
2.0546875000,32,217.0000000000,,,
2.0566406250,32,204.0000000000,,,
2.0585937500,32,130.0000000000,,,
2.0605468750,32,108.0000000000,,,
2.0625000000,33,179.0000000000,,,
2.0644531250,33,182.0000000000,,,
2.0664062500,33,119.0000000000,,,
2.0683593750,33,145.0000000000,,,
2.0703125000,33,258.0000000000,,,
2.0722656250,33,312.0000000000,,,
2.0742187500,33,258.0000000000,,,
2.0761718750,33,170.0000000000,,,
2.0781250000,33,156.0000000000,,,
2.0800781250,33,189.0000000000,,,
2.0820312500,33,167.0000000000,,,
2.0839843750,33,149.0000000000,,,
2.0859375000,33,228.0000000000,,,
2.0878906250,33,346.0000000000,,,
2.0898437500,33,392.0000000000,,,
2.0917968750,33,323.0000000000,,,
2.0937500000,33,245.0000000000,,,
2.0957031250,33,265.0000000000,,,
2.0976562500,33,289.0000000000,,,
2.0996093750,33,247.0000000000,,,
2.1015625000,33,261.0000000000,,,
2.1035156250,33,354.0000000000,,,
2.1054687500,33,397.0000000000,,,
2.1074218750,33,327.0000000000,,,
2.1093750000,33,198.0000000000,,,
2.1113281250,33,169.0000000000,,,
2.1132812500,33,230.0000000000,,,
2.1152343750,33,209.0000000000,,,
2.1171875000,33,140.0000000000,,,
2.1191406250,33,145.0000000000,,,
2.1210937500,33,192.0000000000,,,
2.1230468750,33,188.0000000000,,,
2.1250000000,34,114.0000000000,,,
2.1269531250,34,35.0000000000,,,
2.1289062500,34,51.0000000000,,,
2.1308593750,34,77.0000000000,,,
2.1328125000,34,38.0000000000,,,
2.1347656250,34,32.0000000000,,,
2.1367187500,34,84.0000000000,,,
2.1386718750,34,93.0000000000,,,
2.1406250000,34,-3.0000000000,,,
2.1425781250,34,-136.0000000000,,,
2.1445312500,34,-184.0000000000,,,
2.1464843750,34,-129.0000000000,,,
2.1484375000,34,-91.0000000000,,,
2.1503906250,34,-89.0000000000,,,
2.1523437500,34,-44.0000000000,,,
2.1542968750,34,35.0000000000,,,
2.1562500000,34,51.0000000000,,,
2.1582031250,34,-34.0000000000,,,
2.1601562500,34,-123.0000000000,,,
2.1621093750,34,-116.0000000000,,,
2.1640625000,34,-97.0000000000,,,
2.1660156250,34,-162.0000000000,,,
2.1679687500,34,-195.0000000000,,,
2.1699218750,34,-110.0000000000,,,
2.1718750000,34,-21.0000000000,,,
2.1738281250,34,-17.0000000000,,,
2.1757812500,34,-98.0000000000,,,
2.1777343750,34,-165.0000000000,,,
2.1796875000,34,-170.0000000000,,,
2.1816406250,34,-183.0000000000,,,
2.1835937500,34,-219.0000000000,,,
2.1855468750,34,-194.0000000000,,,
2.1875000000,35,-100.0000000000,,,
2.1894531250,35,-29.0000000000,,,
2.1914062500,35,-40.0000000000,,,
2.1933593750,35,-94.0000000000,,,
2.1953125000,35,-73.0000000000,,,
2.1972656250,35,-18.0000000000,,,
2.1992187500,35,-41.0000000000,,,
2.2011718750,35,-72.0000000000,,,
2.2031250000,35,-22.0000000000,,,
2.2050781250,35,56.0000000000,,,
2.2070312500,35,41.0000000000,,,
2.2089843750,35,-69.0000000000,,,
2.2109375000,35,-150.0000000000,,,
2.2128906250,35,-147.0000000000,,,
2.2148437500,35,-173.0000000000,,,
2.2167968750,35,-245.0000000000,,,
2.2187500000,35,-219.0000000000,,,
2.2207031250,35,-97.0000000000,,,
2.2226562500,35,-24.0000000000,,,
2.2246093750,35,-77.0000000000,,,
2.2265625000,35,-161.0000000000,,,
2.2285156250,35,-150.0000000000,,,
2.2304687500,35,-90.0000000000,,,
2.2324218750,35,-104.0000000000,,,
2.2343750000,35,-141.0000000000,,,
2.2363281250,35,-85.0000000000,,,
2.2382812500,35,12.0000000000,,,
2.2402343750,35,49.0000000000,,,
2.2421875000,35,4.0000000000,,,
2.2441406250,35,-43.0000000000,,,
2.2460937500,35,-12.0000000000,,,
2.2480468750,35,3.0000000000,,,
2.2500000000,36,-59.0000000000,,,
2.2519531250,36,-85.0000000000,,,
2.2539062500,36,-21.0000000000,,,
2.2558593750,36,18.0000000000,,,
2.2578125000,36,-26.0000000000,,,
2.2597656250,36,-110.0000000000,,,
2.2617187500,36,-88.0000000000,,,
2.2636718750,36,22.0000000000,,,
2.2656250000,36,32.0000000000,,,
2.2675781250,36,-20.0000000000,,,
2.2695312500,36,17.0000000000,,,
2.2714843750,36,120.0000000000,,,
2.2734375000,36,155.0000000000,,,
2.2753906250,36,76.0000000000,,,
2.2773437500,36,-26.0000000000,,,
2.2792968750,36,-29.0000000000,,,
2.2812500000,36,8.0000000000,,,
2.2832031250,36,-17.0000000000,,,
2.2851562500,36,-20.0000000000,,,
2.2871093750,36,82.0000000000,,,
2.2890625000,36,186.0000000000,,,
2.2910156250,36,157.0000000000,,,
2.2929687500,36,33.0000000000,,,
2.2949218750,36,-35.0000000000,,,
2.2968750000,36,-1.0000000000,,,
2.2988281250,36,0.0000000000,,,
2.3007812500,36,-46.0000000000,,,
2.3027343750,36,-27.0000000000,,,
2.3046875000,36,55.0000000000,,,
2.3066406250,36,103.0000000000,,,
2.3085937500,36,67.0000000000,,,
2.3105468750,36,0.0000000000,,,
2.3125000000,37,18.0000000000,,,
2.3144531250,37,72.0000000000,,,
2.3164062500,37,24.0000000000,,,
2.3183593750,37,-21.0000000000,,,
2.3203125000,37,42.0000000000,,,
2.3222656250,37,136.0000000000,,,
2.3242187500,37,131.0000000000,,,
2.3261718750,37,39.0000000000,,,
2.3281250000,37,-17.0000000000,,,
2.3300781250,37,48.0000000000,,,
2.3320312500,37,87.0000000000,,,
2.3339843750,37,18.0000000000,,,
2.3359375000,37,18.0000000000,,,
2.3378906250,37,135.0000000000,,,
2.3398437500,37,228.0000000000,,,
2.3417968750,37,189.0000000000,,,
2.3437500000,37,85.0000000000,,,
2.3457031250,37,42.0000000000,,,
2.3476562500,37,66.0000000000,,,
2.3496093750,37,18.0000000000,,,
2.3515625000,37,-30.0000000000,,,
2.3535156250,37,8.0000000000,,,
2.3554687500,37,118.0000000000,,,
2.3574218750,37,172.0000000000,,,
2.3593750000,37,103.0000000000,,,
2.3613281250,37,5.0000000000,,,
2.3632812500,37,7.0000000000,,,
2.3652343750,37,38.0000000000,,,
2.3671875000,37,8.0000000000,,,
2.3691406250,37,21.0000000000,,,
2.3710937500,37,104.0000000000,,,
2.3730468750,37,165.0000000000,,,
2.3750000000,38,140.0000000000,,,
2.3769531250,38,54.0000000000,,,
2.3789062500,38,10.0000000000,,,
2.3808593750,38,57.0000000000,,,
2.3828125000,38,56.0000000000,,,
2.3847656250,38,9.0000000000,,,
2.3867187500,38,29.0000000000,,,
2.3886718750,38,114.0000000000,,,
2.3906250000,38,148.0000000000,,,
2.3925781250,38,103.0000000000,,,
2.3945312500,38,43.0000000000,,,
2.3964843750,38,44.0000000000,,,
2.3984375000,38,58.0000000000,,,
2.4003906250,38,10.0000000000,,,
2.4023437500,38,-6.0000000000,,,
2.4042968750,38,64.0000000000,,,
2.4062500000,38,117.0000000000,,,
2.4082031250,38,52.0000000000,,,
2.4101562500,38,-60.0000000000,,,
2.4121093750,38,-100.0000000000,,,
2.4140625000,38,-65.0000000000,,,
2.4160156250,38,-71.0000000000,,,
2.4179687500,38,-86.0000000000,,,
2.4199218750,38,-24.0000000000,,,
2.4218750000,38,90.0000000000,,,
2.4238281250,38,145.0000000000,,,
2.4257812500,38,64.0000000000,,,
2.4277343750,38,-59.0000000000,,,
2.4296875000,38,-65.0000000000,,,
2.4316406250,38,-8.0000000000,,,
2.4335937500,38,-26.0000000000,,,
2.4355468750,38,-69.0000000000,,,
2.4375000000,39,-34.0000000000,,,
2.4394531250,39,45.0000000000,,,
2.4414062500,39,68.0000000000,,,
2.4433593750,39,-9.0000000000,,,
2.4453125000,39,-69.0000000000,,,
2.4472656250,39,-19.0000000000,,,
2.4492187500,39,19.0000000000,,,
2.4511718750,39,-17.0000000000,,,
2.4531250000,39,5.0000000000,,,
2.4550781250,39,99.0000000000,,,
2.4570312500,39,123.0000000000,,,
2.4589843750,39,43.0000000000,,,
2.4609375000,39,-43.0000000000,,,
2.4628906250,39,-40.0000000000,,,
2.4648437500,39,16.0000000000,,,
2.4667968750,39,-9.0000000000,,,
2.4687500000,39,-49.0000000000,,,
2.4707031250,39,2.0000000000,,,
2.4726562500,39,70.0000000000,,,
2.4746093750,39,85.0000000000,,,
2.4765625000,39,41.0000000000,,,
2.4785156250,39,-5.0000000000,,,
2.4804687500,39,4.0000000000,,,
2.4824218750,39,8.0000000000,,,
2.4843750000,39,-17.0000000000,,,
2.4863281250,39,4.0000000000,,,
2.4882812500,39,96.0000000000,,,
2.4902343750,39,132.0000000000,,,
2.4921875000,39,50.0000000000,,,
2.4941406250,39,-56.0000000000,,,
2.4960937500,39,-45.0000000000,,,
2.4980468750,39,35.0000000000,,,
2.5000000000,40,4.0000000000,,,
2.5019531250,40,-68.0000000000,,,
2.5039062500,40,-4.0000000000,,,
2.5058593750,40,129.0000000000,,,
2.5078125000,40,167.0000000000,,,
2.5097656250,40,89.0000000000,,,
2.5117187500,40,-2.0000000000,,,
2.5136718750,40,5.0000000000,,,
2.5156250000,40,39.0000000000,,,
2.5175781250,40,1.0000000000,,,
2.5195312500,40,-22.0000000000,,,
2.5214843750,40,65.0000000000,,,
2.5234375000,40,172.0000000000,,,
2.5253906250,40,169.0000000000,,,
2.5273437500,40,88.0000000000,,,
2.5292968750,40,67.0000000000,,,
2.5312500000,40,120.0000000000,,,
2.5332031250,40,107.0000000000,,,
2.5351562500,40,43.0000000000,,,
2.5371093750,40,41.0000000000,,,
2.5390625000,40,117.0000000000,,,
2.5410156250,40,167.0000000000,,,
2.5429687500,40,125.0000000000,,,
2.5449218750,40,50.0000000000,,,
2.5468750000,40,45.0000000000,,,
2.5488281250,40,81.0000000000,,,
2.5507812500,40,52.0000000000,,,
2.5527343750,40,52.0000000000,,,
2.5546875000,40,134.0000000000,,,
2.5566406250,40,211.0000000000,,,
2.5585937500,40,200.0000000000,,,
2.5605468750,40,116.0000000000,,,
2.5625000000,41,45.0000000000,,,
2.5644531250,41,28.0000000000,,,
2.5664062500,41,-3.0000000000,,,
2.5683593750,41,-59.0000000000,,,
2.5703125000,41,-61.0000000000,,,
2.5722656250,41,-9.0000000000,,,
2.5742187500,41,1.0000000000,,,
2.5761718750,41,-34.0000000000,,,
2.5781250000,41,-82.0000000000,,,
2.5800781250,41,-59.0000000000,,,
2.5820312500,41,17.0000000000,,,
2.5839843750,41,17.0000000000,,,
2.5859375000,41,-26.0000000000,,,
2.5878906250,41,-7.0000000000,,,
2.5898437500,41,61.0000000000,,,
2.5917968750,41,73.0000000000,,,
2.5937500000,41,-13.0000000000,,,
2.5957031250,41,-103.0000000000,,,
2.5976562500,41,-97.0000000000,,,
2.5996093750,41,-77.0000000000,,,
2.6015625000,41,-91.0000000000,,,
2.6035156250,41,-54.0000000000,,,
2.6054687500,41,34.0000000000,,,
2.6074218750,41,86.0000000000,,,
2.6093750000,41,44.0000000000,,,
2.6113281250,41,-49.0000000000,,,
2.6132812500,41,-81.0000000000,,,
2.6152343750,41,-30.0000000000,,,
2.6171875000,41,-37.0000000000,,,
2.6191406250,41,-84.0000000000,,,
2.6210937500,41,-46.0000000000,,,
2.6230468750,41,61.0000000000,,,
2.6250000000,42,128.0000000000,,,
2.6269531250,42,86.0000000000,,,
2.6289062500,42,-1.0000000000,,,
2.6308593750,42,-23.0000000000,,,
2.6328125000,42,-23.0000000000,,,
2.6347656250,42,-76.0000000000,,,
2.6367187500,42,-90.0000000000,,,
2.6386718750,42,-18.0000000000,,,
2.6406250000,42,83.0000000000,,,
2.6425781250,42,96.0000000000,,,
2.6445312500,42,19.0000000000,,,
2.6464843750,42,-19.0000000000,,,
2.6484375000,42,19.0000000000,,,
2.6503906250,42,21.0000000000,,,
2.6523437500,42,-10.0000000000,,,
2.6542968750,42,22.0000000000,,,
2.6562500000,42,103.0000000000,,,
2.6582031250,42,120.0000000000,,,
2.6601562500,42,56.0000000000,,,
2.6621093750,42,-13.0000000000,,,
2.6640625000,42,-5.0000000000,,,
2.6660156250,42,36.0000000000,,,
2.6679687500,42,-28.0000000000,,,
2.6699218750,42,-94.0000000000,,,
2.6718750000,42,-26.0000000000,,,
2.6738281250,42,97.0000000000,,,
2.6757812500,42,121.0000000000,,,
2.6777343750,42,35.0000000000,,,
2.6796875000,42,-21.0000000000,,,
2.6816406250,42,28.0000000000,,,
2.6835937500,42,64.0000000000,,,
2.6855468750,42,42.0000000000,,,
2.6875000000,43,65.0000000000,,,
2.6894531250,43,152.0000000000,,,
2.6914062500,43,193.0000000000,,,
2.6933593750,43,108.0000000000,,,
2.6953125000,43,-22.0000000000,,,
2.6972656250,43,-58.0000000000,,,
2.6992187500,43,-9.0000000000,,,
2.7011718750,43,-30.0000000000,,,
2.7031250000,43,-67.0000000000,,,
2.7050781250,43,0.0000000000,,,
2.7070312500,43,119.0000000000,,,
2.7089843750,43,129.0000000000,,,
2.7109375000,43,6.0000000000,,,
2.7128906250,43,-68.0000000000,,,
2.7148437500,43,-8.0000000000,,,
2.7167968750,43,34.0000000000,,,
2.7187500000,43,-10.0000000000,,,
2.7207031250,43,-4.0000000000,,,
2.7226562500,43,108.0000000000,,,
2.7246093750,43,187.0000000000,,,
2.7265625000,43,154.0000000000,,,
2.7285156250,43,51.0000000000,,,
2.7304687500,43,4.0000000000,,,
2.7324218750,43,37.0000000000,,,
2.7343750000,43,25.0000000000,,,
2.7363281250,43,4.0000000000,,,
2.7382812500,43,43.0000000000,,,
2.7402343750,43,118.0000000000,,,
2.7421875000,43,133.0000000000,,,
2.7441406250,43,71.0000000000,,,
2.7460937500,43,20.0000000000,,,
2.7480468750,43,50.0000000000,,,
2.7500000000,44,53.0000000000,,,
2.7519531250,44,-21.0000000000,,,
2.7539062500,44,-25.0000000000,,,
2.7558593750,44,99.0000000000,,,
2.7578125000,44,197.0000000000,,,
2.7597656250,44,167.0000000000,,,
2.7617187500,44,53.0000000000,,,
2.7636718750,44,-12.0000000000,,,
2.7656250000,44,21.0000000000,,,
2.7675781250,44,40.0000000000,,,
2.7695312500,44,12.0000000000,,,
2.7714843750,44,27.0000000000,,,
2.7734375000,44,106.0000000000,,,
2.7753906250,44,139.0000000000,,,
2.7773437500,44,74.0000000000,,,
2.7792968750,44,-8.0000000000,,,
2.7812500000,44,-7.0000000000,,,
2.7832031250,44,32.0000000000,,,
2.7851562500,44,-12.0000000000,,,
2.7871093750,44,-61.0000000000,,,
2.7890625000,44,-11.0000000000,,,
2.7910156250,44,64.0000000000,,,
2.7929687500,44,73.0000000000,,,
2.7949218750,44,10.0000000000,,,
2.7968750000,44,-42.0000000000,,,
2.7988281250,44,16.0000000000,,,
2.8007812500,44,69.0000000000,,,
2.8027343750,44,49.0000000000,,,
2.8046875000,44,55.0000000000,,,
2.8066406250,44,125.0000000000,,,
2.8085937500,44,165.0000000000,,,
2.8105468750,44,124.0000000000,,,
2.8125000000,45,41.0000000000,,,
2.8144531250,45,-3.0000000000,,,
2.8164062500,45,11.0000000000,,,
2.8183593750,45,6.0000000000,,,
2.8203125000,45,-19.0000000000,,,
2.8222656250,45,19.0000000000,,,
2.8242187500,45,73.0000000000,,,
2.8261718750,45,54.0000000000,,,
2.8281250000,45,-12.0000000000,,,
2.8300781250,45,-40.0000000000,,,
2.8320312500,45,6.0000000000,,,
2.8339843750,45,12.0000000000,,,
2.8359375000,45,-36.0000000000,,,
2.8378906250,45,6.0000000000,,,
2.8398437500,45,144.0000000000,,,
2.8417968750,45,211.0000000000,,,
2.8437500000,45,129.0000000000,,,
2.8457031250,45,0.0000000000,,,
2.8476562500,45,-11.0000000000,,,
2.8496093750,45,27.0000000000,,,
2.8515625000,45,-5.0000000000,,,
2.8535156250,45,-43.0000000000,,,
2.8554687500,45,24.0000000000,,,
2.8574218750,45,141.0000000000,,,
2.8593750000,45,169.0000000000,,,
2.8613281250,45,97.0000000000,,,
2.8632812500,45,29.0000000000,,,
2.8652343750,45,71.0000000000,,,
2.8671875000,45,121.0000000000,,,
2.8691406250,45,87.0000000000,,,
2.8710937500,45,71.0000000000,,,
2.8730468750,45,130.0000000000,,,
2.8750000000,46,185.0000000000,,,
2.8769531250,46,166.0000000000,,,
2.8789062500,46,85.0000000000,,,
2.8808593750,46,33.0000000000,,,
2.8828125000,46,18.0000000000,,,
2.8847656250,46,-56.0000000000,,,
2.8867187500,46,-110.0000000000,,,
2.8886718750,46,-27.0000000000,,,
2.8906250000,46,125.0000000000,,,
2.8925781250,46,179.0000000000,,,
2.8945312500,46,97.0000000000,,,
2.8964843750,46,-18.0000000000,,,
2.8984375000,46,-20.0000000000,,,
2.9003906250,46,48.0000000000,,,
2.9023437500,46,35.0000000000,,,
2.9042968750,46,-27.0000000000,,,
2.9062500000,46,-30.0000000000,,,
2.9082031250,46,39.0000000000,,,
2.9101562500,46,102.0000000000,,,
2.9121093750,46,59.0000000000,,,
2.9140625000,46,2.0000000000,,,
2.9160156250,46,35.0000000000,,,
2.9179687500,46,64.0000000000,,,
2.9199218750,46,32.0000000000,,,
2.9218750000,46,36.0000000000,,,
2.9238281250,46,113.0000000000,,,
2.9257812500,46,165.0000000000,,,
2.9277343750,46,92.0000000000,,,
2.9296875000,46,-11.0000000000,,,
2.9316406250,46,-10.0000000000,,,
2.9335937500,46,11.0000000000,,,
2.9355468750,46,-53.0000000000,,,
2.9375000000,47,-101.0000000000,,,
2.9394531250,47,-28.0000000000,,,
2.9414062500,47,70.0000000000,,,
2.9433593750,47,91.0000000000,,,
2.9453125000,47,13.0000000000,,,
2.9472656250,47,-49.0000000000,,,
2.9492187500,47,-7.0000000000,,,
2.9511718750,47,13.0000000000,,,
2.9531250000,47,-25.0000000000,,,
2.9550781250,47,-7.0000000000,,,
2.9570312500,47,91.0000000000,,,
2.9589843750,47,133.0000000000,,,
2.9609375000,47,39.0000000000,,,
2.9628906250,47,-98.0000000000,,,
2.9648437500,47,-140.0000000000,,,
2.9667968750,47,-62.0000000000,,,
2.9687500000,47,-19.0000000000,,,
2.9707031250,47,-13.0000000000,,,
2.9726562500,47,40.0000000000,,,
2.9746093750,47,97.0000000000,,,
2.9765625000,47,86.0000000000,,,
2.9785156250,47,33.0000000000,,,
2.9804687500,47,-7.0000000000,,,
2.9824218750,47,11.0000000000,,,
2.9843750000,47,8.0000000000,,,
2.9863281250,47,-56.0000000000,,,
2.9882812500,47,-90.0000000000,,,
2.9902343750,47,-26.0000000000,,,
2.9921875000,47,70.0000000000,,,
2.9941406250,47,92.0000000000,,,
2.9960937500,47,25.0000000000,,,
2.9980468750,47,-22.0000000000,,,
3.0000000000,48,17.0000000000,,,
3.0019531250,48,32.0000000000,,,
3.0039062500,48,-2.0000000000,,,
3.0058593750,48,11.0000000000,,,
3.0078125000,48,67.0000000000,,,
3.0097656250,48,44.0000000000,,,
3.0117187500,48,-50.0000000000,,,
3.0136718750,48,-114.0000000000,,,
3.0156250000,48,-53.0000000000,,,
3.0175781250,48,42.0000000000,,,
3.0195312500,48,40.0000000000,,,
3.0214843750,48,11.0000000000,,,
3.0234375000,48,76.0000000000,,,
3.0253906250,48,193.0000000000,,,
3.0273437500,48,202.0000000000,,,
3.0292968750,48,83.0000000000,,,
3.0312500000,48,4.0000000000,,,
3.0332031250,48,54.0000000000,,,
3.0351562500,48,76.0000000000,,,
3.0371093750,48,26.0000000000,,,
3.0390625000,48,45.0000000000,,,
3.0410156250,48,154.0000000000,,,
3.0429687500,48,215.0000000000,,,
3.0449218750,48,182.0000000000,,,
3.0468750000,48,89.0000000000,,,
3.0488281250,48,50.0000000000,,,
3.0507812500,48,69.0000000000,,,
3.0527343750,48,36.0000000000,,,
3.0546875000,48,-3.0000000000,,,
3.0566406250,48,26.0000000000,,,
3.0585937500,48,70.0000000000,,,
3.0605468750,48,32.0000000000,,,
3.0625000000,49,-41.0000000000,,,
3.0644531250,49,-58.0000000000,,,
3.0664062500,49,5.0000000000,,,
3.0683593750,49,20.0000000000,,,
3.0703125000,49,-30.0000000000,,,
3.0722656250,49,-23.0000000000,,,
3.0742187500,49,98.0000000000,,,
3.0761718750,49,225.0000000000,,,
3.0781250000,49,217.0000000000,,,
3.0800781250,49,108.0000000000,,,
3.0820312500,49,72.0000000000,,,
3.0839843750,49,118.0000000000,,,
3.0859375000,49,88.0000000000,,,
3.0878906250,49,50.0000000000,,,
3.0898437500,49,101.0000000000,,,
3.0917968750,49,199.0000000000,,,
3.0937500000,49,213.0000000000,,,
3.0957031250,49,105.0000000000,,,
3.0976562500,49,-5.0000000000,,,
3.0996093750,49,-20.0000000000,,,
3.1015625000,49,-36.0000000000,,,
3.1035156250,49,-78.0000000000,,,
3.1054687500,49,-29.0000000000,,,
3.1074218750,49,121.0000000000,,,
3.1093750000,49,215.0000000000,,,
3.1113281250,49,183.0000000000,,,
3.1132812500,49,92.0000000000,,,
3.1152343750,49,69.0000000000,,,
3.1171875000,49,121.0000000000,,,
3.1191406250,49,118.0000000000,,,
3.1210937500,49,43.0000000000,,,
3.1230468750,49,19.0000000000,,,
3.1250000000,50,71.0000000000,,,
3.1269531250,50,114.0000000000,,,
3.1289062500,50,81.0000000000,,,
3.1308593750,50,6.0000000000,,,
3.1328125000,50,21.0000000000,,,
3.1347656250,50,92.0000000000,,,
3.1367187500,50,72.0000000000,,,
3.1386718750,50,24.0000000000,,,
3.1406250000,50,54.0000000000,,,
3.1425781250,50,98.0000000000,,,
3.1445312500,50,71.0000000000,,,
3.1464843750,50,-25.0000000000,,,
3.1484375000,50,-89.0000000000,,,
3.1503906250,50,-66.0000000000,,,
3.1523437500,50,-65.0000000000,,,
3.1542968750,50,-84.0000000000,,,
3.1562500000,50,-11.0000000000,,,
3.1582031250,50,122.0000000000,,,
3.1601562500,50,176.0000000000,,,
3.1621093750,50,84.0000000000,,,
3.1640625000,50,-25.0000000000,,,
3.1660156250,50,-20.0000000000,,,
3.1679687500,50,51.0000000000,,,
3.1699218750,50,42.0000000000,,,
3.1718750000,50,-3.0000000000,,,
3.1738281250,50,39.0000000000,,,
3.1757812500,50,131.0000000000,,,
3.1777343750,50,150.0000000000,,,
3.1796875000,50,60.0000000000,,,
3.1816406250,50,-25.0000000000,,,
3.1835937500,50,3.0000000000,,,
3.1855468750,50,20.0000000000,,,
3.1875000000,51,-54.0000000000,,,
3.1894531250,51,-86.0000000000,,,
3.1914062500,51,-8.0000000000,,,
3.1933593750,51,81.0000000000,,,
3.1953125000,51,69.0000000000,,,
3.1972656250,51,-20.0000000000,,,
3.1992187500,51,-34.0000000000,,,
3.2011718750,51,28.0000000000,,,
3.2031250000,51,12.0000000000,,,
3.2050781250,51,-58.0000000000,,,
3.2070312500,51,-60.0000000000,,,
3.2089843750,51,16.0000000000,,,
3.2109375000,51,68.0000000000,,,
3.2128906250,51,17.0000000000,,,
3.2148437500,51,-65.0000000000,,,
3.2167968750,51,-53.0000000000,,,
3.2187500000,51,-23.0000000000,,,
3.2207031250,51,-46.0000000000,,,
3.2226562500,51,-36.0000000000,,,
3.2246093750,51,53.0000000000,,,
3.2265625000,51,114.0000000000,,,
3.2285156250,51,80.0000000000,,,
3.2304687500,51,3.0000000000,,,
3.2324218750,51,-29.0000000000,,,
3.2343750000,51,-2.0000000000,,,
3.2363281250,51,-6.0000000000,,,
3.2382812500,51,-41.0000000000,,,
3.2402343750,51,-39.0000000000,,,
3.2421875000,51,27.0000000000,,,
3.2441406250,51,100.0000000000,,,
3.2460937500,51,91.0000000000,,,
3.2480468750,51,37.0000000000,,,
3.2500000000,52,44.0000000000,,,
3.2519531250,52,83.0000000000,,,
3.2539062500,52,52.0000000000,,,
3.2558593750,52,35.0000000000,,,
3.2578125000,52,99.0000000000,,,
3.2597656250,52,164.0000000000,,,
3.2617187500,52,124.0000000000,,,
3.2636718750,52,-2.0000000000,,,
3.2656250000,52,-57.0000000000,,,
3.2675781250,52,5.0000000000,,,
3.2695312500,52,24.0000000000,,,
3.2714843750,52,-20.0000000000,,,
3.2734375000,52,2.0000000000,,,
3.2753906250,52,104.0000000000,,,
3.2773437500,52,170.0000000000,,,
3.2792968750,52,129.0000000000,,,
3.2812500000,52,16.0000000000,,,
3.2832031250,52,-28.0000000000,,,
3.2851562500,52,5.0000000000,,,
3.2871093750,52,-13.0000000000,,,
3.2890625000,52,-33.0000000000,,,
3.2910156250,52,48.0000000000,,,
3.2929687500,52,135.0000000000,,,
3.2949218750,52,120.0000000000,,,
3.2968750000,52,17.0000000000,,,
3.2988281250,52,-59.0000000000,,,
3.3007812500,52,-18.0000000000,,,
3.3027343750,52,5.0000000000,,,
3.3046875000,52,-30.0000000000,,,
3.3066406250,52,-29.0000000000,,,
3.3085937500,52,23.0000000000,,,
3.3105468750,52,48.0000000000,,,
3.3125000000,53,-11.0000000000,,,
3.3144531250,53,-88.0000000000,,,
3.3164062500,53,-75.0000000000,,,
3.3183593750,53,-8.0000000000,,,
3.3203125000,53,-29.0000000000,,,
3.3222656250,53,-84.0000000000,,,
3.3242187500,53,-33.0000000000,,,
3.3261718750,53,104.0000000000,,,
3.3281250000,53,133.0000000000,,,
3.3300781250,53,9.0000000000,,,
3.3320312500,53,-91.0000000000,,,
3.3339843750,53,-75.0000000000,,,
3.3359375000,53,-37.0000000000,,,
3.3378906250,53,-73.0000000000,,,
3.3398437500,53,-85.0000000000,,,
3.3417968750,53,2.0000000000,,,
3.3437500000,53,84.0000000000,,,
3.3457031250,53,75.0000000000,,,
3.3476562500,53,17.0000000000,,,
3.3496093750,53,-10.0000000000,,,
3.3515625000,53,28.0000000000,,,
3.3535156250,53,24.0000000000,,,
3.3554687500,53,-22.0000000000,,,
3.3574218750,53,5.0000000000,,,
3.3593750000,53,90.0000000000,,,
3.3613281250,53,121.0000000000,,,
3.3632812500,53,66.0000000000,,,
3.3652343750,53,1.0000000000,,,
3.3671875000,53,13.0000000000,,,
3.3691406250,53,36.0000000000,,,
3.3710937500,53,-25.0000000000,,,
3.3730468750,53,-56.0000000000,,,
3.3750000000,54,37.0000000000,,,
3.3769531250,54,140.0000000000,,,
3.3789062500,54,122.0000000000,,,
3.3808593750,54,17.0000000000,,,
3.3828125000,54,-44.0000000000,,,
3.3847656250,54,-10.0000000000,,,
3.3867187500,54,0.0000000000,,,
3.3886718750,54,-44.0000000000,,,
3.3906250000,54,-29.0000000000,,,
3.3925781250,54,71.0000000000,,,
3.3945312500,54,148.0000000000,,,
3.3964843750,54,89.0000000000,,,
3.3984375000,54,-33.0000000000,,,
3.4003906250,54,-30.0000000000,,,
3.4023437500,54,64.0000000000,,,
3.4042968750,54,88.0000000000,,,
3.4062500000,54,84.0000000000,,,
3.4082031250,54,107.0000000000,,,
3.4101562500,54,155.0000000000,,,
3.4121093750,54,152.0000000000,,,
3.4140625000,54,72.0000000000,,,
3.4160156250,54,16.0000000000,,,
3.4179687500,54,65.0000000000,,,
3.4199218750,54,86.0000000000,,,
3.4218750000,54,29.0000000000,,,
3.4238281250,54,43.0000000000,,,
3.4257812500,54,141.0000000000,,,
3.4277343750,54,184.0000000000,,,
3.4296875000,54,100.0000000000,,,
3.4316406250,54,-44.0000000000,,,
3.4335937500,54,-99.0000000000,,,
3.4355468750,54,-41.0000000000,,,
3.4375000000,55,-28.0000000000,,,
3.4394531250,55,-49.0000000000,,,
3.4414062500,55,2.0000000000,,,
3.4433593750,55,109.0000000000,,,
3.4453125000,55,152.0000000000,,,
3.4472656250,55,56.0000000000,,,
3.4492187500,55,-46.0000000000,,,
3.4511718750,55,-22.0000000000,,,
3.4531250000,55,39.0000000000,,,
3.4550781250,55,8.0000000000,,,
3.4570312500,55,-21.0000000000,,,
3.4589843750,55,19.0000000000,,,
3.4609375000,55,58.0000000000,,,
3.4628906250,55,24.0000000000,,,
3.4648437500,55,-54.0000000000,,,
3.4667968750,55,-72.0000000000,,,
3.4687500000,55,-9.0000000000,,,
3.4707031250,55,-3.0000000000,,,
3.4726562500,55,-24.0000000000,,,
3.4746093750,55,34.0000000000,,,
3.4765625000,55,144.0000000000,,,
3.4785156250,55,195.0000000000,,,
3.4804687500,55,155.0000000000,,,
3.4824218750,55,82.0000000000,,,
3.4843750000,55,77.0000000000,,,
3.4863281250,55,89.0000000000,,,
3.4882812500,55,44.0000000000,,,
3.4902343750,55,21.0000000000,,,
3.4921875000,55,82.0000000000,,,
3.4941406250,55,166.0000000000,,,
3.4960937500,55,151.0000000000,,,
3.4980468750,55,37.0000000000,,,
3.5000000000,56,-42.0000000000,,,
3.5019531250,56,-18.0000000000,,,
3.5039062500,56,-4.0000000000,,,
3.5058593750,56,-41.0000000000,,,
3.5078125000,56,-37.0000000000,,,
3.5097656250,56,41.0000000000,,,
3.5117187500,56,114.0000000000,,,
3.5136718750,56,84.0000000000,,,
3.5156250000,56,-9.0000000000,,,
3.5175781250,56,-26.0000000000,,,
3.5195312500,56,21.0000000000,,,
3.5214843750,56,-9.0000000000,,,
3.5234375000,56,-86.0000000000,,,
3.5253906250,56,-68.0000000000,,,
3.5273437500,56,21.0000000000,,,
3.5292968750,56,41.0000000000,,,
3.5312500000,56,-62.0000000000,,,
3.5332031250,56,-167.0000000000,,,
3.5351562500,56,-132.0000000000,,,
3.5371093750,56,-62.0000000000,,,
3.5390625000,56,-53.0000000000,,,
3.5410156250,56,-11.0000000000,,,
3.5429687500,56,89.0000000000,,,
3.5449218750,56,137.0000000000,,,
3.5468750000,56,72.0000000000,,,
3.5488281250,56,-28.0000000000,,,
3.5507812500,56,-33.0000000000,,,
3.5527343750,56,37.0000000000,,,
3.5546875000,56,33.0000000000,,,
3.5566406250,56,-8.0000000000,,,
3.5585937500,56,24.0000000000,,,
3.5605468750,56,105.0000000000,,,
3.5625000000,57,114.0000000000,,,
3.5644531250,57,29.0000000000,,,
3.5664062500,57,-74.0000000000,,,
3.5683593750,57,-66.0000000000,,,
3.5703125000,57,-5.0000000000,,,
3.5722656250,57,-27.0000000000,,,
3.5742187500,57,-36.0000000000,,,
3.5761718750,57,29.0000000000,,,
3.5781250000,57,87.0000000000,,,
3.5800781250,57,69.0000000000,,,
3.5820312500,57,-4.0000000000,,,
3.5839843750,57,-49.0000000000,,,
3.5859375000,57,-9.0000000000,,,
3.5878906250,57,-10.0000000000,,,
3.5898437500,57,-65.0000000000,,,
3.5917968750,57,-36.0000000000,,,
3.5937500000,57,72.0000000000,,,
3.5957031250,57,131.0000000000,,,
3.5976562500,57,52.0000000000,,,
3.5996093750,57,-70.0000000000,,,
3.6015625000,57,-69.0000000000,,,
3.6035156250,57,-19.0000000000,,,
3.6054687500,57,-46.0000000000,,,
3.6074218750,57,-97.0000000000,,,
3.6093750000,57,-58.0000000000,,,
3.6113281250,57,12.0000000000,,,
3.6132812500,57,24.0000000000,,,
3.6152343750,57,-13.0000000000,,,
3.6171875000,57,-36.0000000000,,,
3.6191406250,57,12.0000000000,,,
3.6210937500,57,26.0000000000,,,
3.6230468750,57,-4.0000000000,,,
3.6250000000,58,26.0000000000,,,
3.6269531250,58,121.0000000000,,,
3.6289062500,58,170.0000000000,,,
3.6308593750,58,139.0000000000,,,
3.6328125000,58,42.0000000000,,,
3.6347656250,58,11.0000000000,,,
3.6367187500,58,42.0000000000,,,
3.6386718750,58,12.0000000000,,,
3.6406250000,58,-18.0000000000,,,
3.6425781250,58,49.0000000000,,,
3.6445312500,58,162.0000000000,,,
3.6464843750,58,170.0000000000,,,
3.6484375000,58,57.0000000000,,,
3.6503906250,58,-46.0000000000,,,
3.6523437500,58,-24.0000000000,,,
3.6542968750,58,36.0000000000,,,
3.6562500000,58,53.0000000000,,,
3.6582031250,58,81.0000000000,,,
3.6601562500,58,154.0000000000,,,
3.6621093750,58,204.0000000000,,,
3.6640625000,58,139.0000000000,,,
3.6660156250,58,17.0000000000,,,
3.6679687500,58,-5.0000000000,,,
3.6699218750,58,34.0000000000,,,
3.6718750000,58,1.0000000000,,,
3.6738281250,58,-51.0000000000,,,
3.6757812500,58,-39.0000000000,,,
3.6777343750,58,18.0000000000,,,
3.6796875000,58,59.0000000000,,,
3.6816406250,58,33.0000000000,,,
3.6835937500,58,-10.0000000000,,,
3.6855468750,58,16.0000000000,,,
3.6875000000,59,26.0000000000,,,
3.6894531250,59,-30.0000000000,,,
3.6914062500,59,-18.0000000000,,,
3.6933593750,59,96.0000000000,,,
3.6953125000,59,163.0000000000,,,
3.6972656250,59,107.0000000000,,,
3.6992187500,59,-33.0000000000,,,
3.7011718750,59,-87.0000000000,,,
3.7031250000,59,-25.0000000000,,,
3.7050781250,59,-26.0000000000,,,
3.7070312500,59,-76.0000000000,,,
3.7089843750,59,-38.0000000000,,,
3.7109375000,59,76.0000000000,,,
3.7128906250,59,124.0000000000,,,
3.7148437500,59,64.0000000000,,,
3.7167968750,59,-3.0000000000,,,
3.7187500000,59,35.0000000000,,,
3.7207031250,59,80.0000000000,,,
3.7226562500,59,11.0000000000,,,
3.7246093750,59,-21.0000000000,,,
3.7265625000,59,55.0000000000,,,
3.7285156250,59,145.0000000000,,,
3.7304687500,59,149.0000000000,,,
3.7324218750,59,66.0000000000,,,
3.7343750000,59,23.0000000000,,,
3.7363281250,59,87.0000000000,,,
3.7382812500,59,103.0000000000,,,
3.7402343750,59,21.0000000000,,,
3.7421875000,59,-17.0000000000,,,
3.7441406250,59,64.0000000000,,,
3.7460937500,59,119.0000000000,,,
3.7480468750,59,37.0000000000,,,
3.7500000000,60,-85.0000000000,,,
3.7519531250,60,-86.0000000000,,,
3.7539062500,60,2.0000000000,,,
3.7558593750,60,26.0000000000,,,
3.7578125000,60,36.0000000000,,,
3.7597656250,60,114.0000000000,,,
3.7617187500,60,210.0000000000,,,
3.7636718750,60,220.0000000000,,,
3.7656250000,60,132.0000000000,,,
3.7675781250,60,58.0000000000,,,
3.7695312500,60,83.0000000000,,,
3.7714843750,60,91.0000000000,,,
3.7734375000,60,43.0000000000,,,
3.7753906250,60,40.0000000000,,,
3.7773437500,60,115.0000000000,,,
3.7792968750,60,154.0000000000,,,
3.7812500000,60,100.0000000000,,,
3.7832031250,60,16.0000000000,,,
3.7851562500,60,19.0000000000,,,
3.7871093750,60,76.0000000000,,,
3.7890625000,60,52.0000000000,,,
3.7910156250,60,20.0000000000,,,
3.7929687500,60,70.0000000000,,,
3.7949218750,60,165.0000000000,,,
3.7968750000,60,169.0000000000,,,
3.7988281250,60,65.0000000000,,,
3.8007812500,60,-20.0000000000,,,
3.8027343750,60,-25.0000000000,,,
3.8046875000,60,-22.0000000000,,,
3.8066406250,60,-54.0000000000,,,
3.8085937500,60,-54.0000000000,,,
3.8105468750,60,2.0000000000,,,
3.8125000000,61,54.0000000000,,,
3.8144531250,61,38.0000000000,,,
3.8164062500,61,-40.0000000000,,,
3.8183593750,61,-60.0000000000,,,
3.8203125000,61,8.0000000000,,,
3.8222656250,61,11.0000000000,,,
3.8242187500,61,-57.0000000000,,,
3.8261718750,61,-54.0000000000,,,
3.8281250000,61,37.0000000000,,,
3.8300781250,61,69.0000000000,,,
3.8320312500,61,0.0000000000,,,
3.8339843750,61,-71.0000000000,,,
3.8359375000,61,-55.0000000000,,,
3.8378906250,61,1.0000000000,,,
3.8398437500,61,-18.0000000000,,,
3.8417968750,61,-44.0000000000,,,
3.8437500000,61,24.0000000000,,,
3.8457031250,61,131.0000000000,,,
3.8476562500,61,134.0000000000,,,
3.8496093750,61,26.0000000000,,,
3.8515625000,61,-42.0000000000,,,
3.8535156250,61,-30.0000000000,,,
3.8554687500,61,-51.0000000000,,,
3.8574218750,61,-84.0000000000,,,
3.8593750000,61,-42.0000000000,,,
3.8613281250,61,64.0000000000,,,
3.8632812500,61,128.0000000000,,,
3.8652343750,61,67.0000000000,,,
3.8671875000,61,-28.0000000000,,,
3.8691406250,61,2.0000000000,,,
3.8710937500,61,75.0000000000,,,
3.8730468750,61,43.0000000000,,,
3.8750000000,62,6.0000000000,,,
3.8769531250,62,80.0000000000,,,
3.8789062500,62,181.0000000000,,,
3.8808593750,62,178.0000000000,,,
3.8828125000,62,81.0000000000,,,
3.8847656250,62,20.0000000000,,,
3.8867187500,62,50.0000000000,,,
3.8886718750,62,65.0000000000,,,
3.8906250000,62,24.0000000000,,,
3.8925781250,62,28.0000000000,,,
3.8945312500,62,103.0000000000,,,
3.8964843750,62,163.0000000000,,,
3.8984375000,62,132.0000000000,,,
3.9003906250,62,53.0000000000,,,
3.9023437500,62,33.0000000000,,,
3.9042968750,62,57.0000000000,,,
3.9062500000,62,18.0000000000,,,
3.9082031250,62,-26.0000000000,,,
3.9101562500,62,21.0000000000,,,
3.9121093750,62,135.0000000000,,,
3.9140625000,62,169.0000000000,,,
3.9160156250,62,84.0000000000,,,
3.9179687500,62,0.0000000000,,,
3.9199218750,62,8.0000000000,,,
3.9218750000,62,19.0000000000,,,
3.9238281250,62,-35.0000000000,,,
3.9257812500,62,-39.0000000000,,,
3.9277343750,62,58.0000000000,,,
3.9296875000,62,138.0000000000,,,
3.9316406250,62,105.0000000000,,,
3.9335937500,62,-5.0000000000,,,
3.9355468750,62,-28.0000000000,,,
3.9375000000,63,48.0000000000,,,
3.9394531250,63,50.0000000000,,,
3.9414062500,63,13.0000000000,,,
3.9433593750,63,75.0000000000,,,
3.9453125000,63,171.0000000000,,,
3.9472656250,63,178.0000000000,,,
3.9492187500,63,77.0000000000,,,
3.9511718750,63,-8.0000000000,,,
3.9531250000,63,28.0000000000,,,
3.9550781250,63,84.0000000000,,,
3.9570312500,63,52.0000000000,,,
3.9589843750,63,28.0000000000,,,
3.9609375000,63,96.0000000000,,,
3.9628906250,63,184.0000000000,,,
3.9648437500,63,193.0000000000,,,
3.9667968750,63,99.0000000000,,,
3.9687500000,63,16.0000000000,,,
3.9707031250,63,20.0000000000,,,
3.9726562500,63,18.0000000000,,,
3.9746093750,63,-22.0000000000,,,
3.9765625000,63,-11.0000000000,,,
3.9785156250,63,84.0000000000,,,
3.9804687500,63,145.0000000000,,,
3.9824218750,63,77.0000000000,,,
3.9843750000,63,-36.0000000000,,,
3.9863281250,63,-72.0000000000,,,
3.9882812500,63,-49.0000000000,,,
3.9902343750,63,-49.0000000000,,,
3.9921875000,63,-22.0000000000,,,
3.9941406250,63,81.0000000000,,,
3.9960937500,63,167.0000000000,,,
3.9980468750,63,166.0000000000,,,
4.0000000000,64,93.0000000000,,,
4.0019531250,64,44.0000000000,,,
4.0039062500,64,73.0000000000,,,
4.0058593750,64,69.0000000000,,,
4.0078125000,64,-3.0000000000,,,
4.0097656250,64,1.0000000000,,,
4.0117187500,64,98.0000000000,,,
4.0136718750,64,146.0000000000,,,
4.0156250000,64,61.0000000000,,,
4.0175781250,64,-70.0000000000,,,
4.0195312500,64,-90.0000000000,,,
4.0214843750,64,-7.0000000000,,,
4.0234375000,64,5.0000000000,,,
4.0253906250,64,-5.0000000000,,,
4.0273437500,64,61.0000000000,,,
4.0292968750,64,139.0000000000,,,
4.0312500000,64,117.0000000000,,,
4.0332031250,64,10.0000000000,,,
4.0351562500,64,-58.0000000000,,,
4.0371093750,64,9.0000000000,,,
4.0390625000,64,77.0000000000,,,
4.0410156250,64,42.0000000000,,,
4.0429687500,64,28.0000000000,,,
4.0449218750,64,123.0000000000,,,
4.0468750000,64,226.0000000000,,,
4.0488281250,64,202.0000000000,,,
4.0507812500,64,101.0000000000,,,
4.0527343750,64,50.0000000000,,,
4.0546875000,64,82.0000000000,,,
4.0566406250,64,68.0000000000,,,
4.0585937500,64,25.0000000000,,,
4.0605468750,64,43.0000000000,,,
4.0625000000,65,118.0000000000,,,
4.0644531250,65,162.0000000000,,,
4.0664062500,65,103.0000000000,,,
4.0683593750,65,5.0000000000,,,
4.0703125000,65,0.0000000000,,,
4.0722656250,65,29.0000000000,,,
4.0742187500,65,-5.0000000000,,,
4.0761718750,65,-27.0000000000,,,
4.0781250000,65,44.0000000000,,,
4.0800781250,65,129.0000000000,,,
4.0820312500,65,133.0000000000,,,
4.0839843750,65,76.0000000000,,,
4.0859375000,65,37.0000000000,,,
4.0878906250,65,52.0000000000,,,
4.0898437500,65,22.0000000000,,,
4.0917968750,65,-55.0000000000,,,
4.0937500000,65,-22.0000000000,,,
4.0957031250,65,98.0000000000,,,
4.0976562500,65,147.0000000000,,,
4.0996093750,65,76.0000000000,,,
4.1015625000,65,-11.0000000000,,,
4.1035156250,65,8.0000000000,,,
4.1054687500,65,93.0000000000,,,
4.1074218750,65,107.0000000000,,,
4.1093750000,65,107.0000000000,,,
4.1113281250,65,160.0000000000,,,
4.1132812500,65,209.0000000000,,,
4.1152343750,65,181.0000000000,,,
4.1171875000,65,102.0000000000,,,
4.1191406250,65,68.0000000000,,,
4.1210937500,65,114.0000000000,,,
4.1230468750,65,120.0000000000,,,
4.1250000000,66,74.0000000000,,,
4.1269531250,66,84.0000000000,,,
4.1289062500,66,150.0000000000,,,
4.1308593750,66,162.0000000000,,,
4.1328125000,66,72.0000000000,,,
4.1347656250,66,-28.0000000000,,,
4.1367187500,66,-34.0000000000,,,
4.1386718750,66,36.0000000000,,,
4.1406250000,66,19.0000000000,,,
4.1425781250,66,-25.0000000000,,,
4.1445312500,66,45.0000000000,,,
4.1464843750,66,170.0000000000,,,
4.1484375000,66,185.0000000000,,,
4.1503906250,66,91.0000000000,,,
4.1523437500,66,5.0000000000,,,
4.1542968750,66,10.0000000000,,,
4.1562500000,66,17.0000000000,,,
4.1582031250,66,-23.0000000000,,,
4.1601562500,66,-23.0000000000,,,
4.1621093750,66,33.0000000000,,,
4.1640625000,66,82.0000000000,,,
4.1660156250,66,57.0000000000,,,
4.1679687500,66,-1.0000000000,,,
4.1699218750,66,1.0000000000,,,
4.1718750000,66,50.0000000000,,,
4.1738281250,66,36.0000000000,,,
4.1757812500,66,-22.0000000000,,,
4.1777343750,66,-5.0000000000,,,
4.1796875000,66,73.0000000000,,,
4.1816406250,66,105.0000000000,,,
4.1835937500,66,36.0000000000,,,
4.1855468750,66,-55.0000000000,,,
4.1875000000,67,-36.0000000000,,,
4.1894531250,67,22.0000000000,,,
4.1914062500,67,16.0000000000,,,
4.1933593750,67,19.0000000000,,,
4.1953125000,67,103.0000000000,,,
4.1972656250,67,181.0000000000,,,
4.1992187500,67,148.0000000000,,,
4.2011718750,67,34.0000000000,,,
4.2031250000,67,-25.0000000000,,,
4.2050781250,67,18.0000000000,,,
4.2070312500,67,44.0000000000,,,
4.2089843750,67,32.0000000000,,,
4.2109375000,67,69.0000000000,,,
4.2128906250,67,152.0000000000,,,
4.2148437500,67,167.0000000000,,,
4.2167968750,67,77.0000000000,,,
4.2187500000,67,-29.0000000000,,,
4.2207031250,67,-45.0000000000,,,
4.2226562500,67,-4.0000000000,,,
4.2246093750,67,-2.0000000000,,,
4.2265625000,67,19.0000000000,,,
4.2285156250,67,104.0000000000,,,
4.2304687500,67,201.0000000000,,,
4.2324218750,67,217.0000000000,,,
4.2343750000,67,136.0000000000,,,
4.2363281250,67,67.0000000000,,,
4.2382812500,67,74.0000000000,,,
4.2402343750,67,61.0000000000,,,
4.2421875000,67,7.0000000000,,,
4.2441406250,67,22.0000000000,,,
4.2460937500,67,98.0000000000,,,
4.2480468750,67,129.0000000000,,,
4.2500000000,68,76.0000000000,,,
4.2519531250,68,24.0000000000,,,
4.2539062500,68,59.0000000000,,,
4.2558593750,68,144.0000000000,,,
4.2578125000,68,122.0000000000,,,
4.2597656250,68,68.0000000000,,,
4.2617187500,68,113.0000000000,,,
4.2636718750,68,216.0000000000,,,
4.2656250000,68,224.0000000000,,,
4.2675781250,68,116.0000000000,,,
4.2695312500,68,20.0000000000,,,
4.2714843750,68,8.0000000000,,,
4.2734375000,68,17.0000000000,,,
4.2753906250,68,-12.0000000000,,,
4.2773437500,68,-3.0000000000,,,
4.2792968750,68,85.0000000000,,,
4.2812500000,68,116.0000000000,,,
4.2832031250,68,45.0000000000,,,
4.2851562500,68,-12.0000000000,,,
4.2871093750,68,12.0000000000,,,
4.2890625000,68,75.0000000000,,,
4.2910156250,68,37.0000000000,,,
4.2929687500,68,-34.0000000000,,,
4.2949218750,68,8.0000000000,,,
4.2968750000,68,145.0000000000,,,
4.2988281250,68,220.0000000000,,,
4.3007812500,68,151.0000000000,,,
4.3027343750,68,33.0000000000,,,
4.3046875000,68,5.0000000000,,,
4.3066406250,68,10.0000000000,,,
4.3085937500,68,-22.0000000000,,,
4.3105468750,68,4.0000000000,,,
4.3125000000,69,102.0000000000,,,
4.3144531250,69,177.0000000000,,,
4.3164062500,69,165.0000000000,,,
4.3183593750,69,105.0000000000,,,
4.3203125000,69,75.0000000000,,,
4.3222656250,69,98.0000000000,,,
4.3242187500,69,92.0000000000,,,
4.3261718750,69,68.0000000000,,,
4.3281250000,69,93.0000000000,,,
4.3300781250,69,184.0000000000,,,
4.3320312500,69,229.0000000000,,,
4.3339843750,69,200.0000000000,,,
4.3359375000,69,149.0000000000,,,
4.3378906250,69,162.0000000000,,,
4.3398437500,69,211.0000000000,,,
4.3417968750,69,163.0000000000,,,
4.3437500000,69,113.0000000000,,,
4.3457031250,69,199.0000000000,,,
4.3476562500,69,345.0000000000,,,
4.3496093750,69,370.0000000000,,,
4.3515625000,69,246.0000000000,,,
4.3535156250,69,136.0000000000,,,
4.3554687500,69,152.0000000000,,,
4.3574218750,69,194.0000000000,,,
4.3593750000,69,188.0000000000,,,
4.3613281250,69,209.0000000000,,,
4.3632812500,69,281.0000000000,,,
4.3652343750,69,309.0000000000,,,
4.3671875000,69,247.0000000000,,,
4.3691406250,69,156.0000000000,,,
4.3710937500,69,144.0000000000,,,
4.3730468750,69,179.0000000000,,,
4.3750000000,70,123.0000000000,,,
4.3769531250,70,71.0000000000,,,
4.3789062500,70,166.0000000000,,,
4.3808593750,70,316.0000000000,,,
4.3828125000,70,357.0000000000,,,
4.3847656250,70,266.0000000000,,,
4.3867187500,70,180.0000000000,,,
4.3886718750,70,194.0000000000,,,
4.3906250000,70,195.0000000000,,,
4.3925781250,70,131.0000000000,,,
4.3945312500,70,87.0000000000,,,
4.3964843750,70,100.0000000000,,,
4.3984375000,70,113.0000000000,,,
4.4003906250,70,57.0000000000,,,
4.4023437500,70,-49.0000000000,,,
4.4042968750,70,-60.0000000000,,,
4.4062500000,70,28.0000000000,,,
4.4082031250,70,50.0000000000,,,
4.4101562500,70,6.0000000000,,,
4.4121093750,70,28.0000000000,,,
4.4140625000,70,86.0000000000,,,
4.4160156250,70,89.0000000000,,,
4.4179687500,70,-2.0000000000,,,
4.4199218750,70,-131.0000000000,,,
4.4218750000,70,-155.0000000000,,,
4.4238281250,70,-120.0000000000,,,
4.4257812500,70,-137.0000000000,,,
4.4277343750,70,-138.0000000000,,,
4.4296875000,70,-77.0000000000,,,
4.4316406250,70,-13.0000000000,,,
4.4335937500,70,-27.0000000000,,,
4.4355468750,70,-126.0000000000,,,
4.4375000000,71,-171.0000000000,,,
4.4394531250,71,-115.0000000000,,,
4.4414062500,71,-102.0000000000,,,
4.4433593750,71,-165.0000000000,,,
4.4453125000,71,-183.0000000000,,,
4.4472656250,71,-131.0000000000,,,
4.4492187500,71,-93.0000000000,,,
4.4511718750,71,-140.0000000000,,,
4.4531250000,71,-225.0000000000,,,
4.4550781250,71,-226.0000000000,,,
4.4570312500,71,-171.0000000000,,,
4.4589843750,71,-164.0000000000,,,
4.4609375000,71,-161.0000000000,,,
4.4628906250,71,-110.0000000000,,,
4.4648437500,71,-54.0000000000,,,
4.4667968750,71,-57.0000000000,,,
4.4687500000,71,-105.0000000000,,,
4.4707031250,71,-149.0000000000,,,
4.4726562500,71,-130.0000000000,,,
4.4746093750,71,-135.0000000000,,,
4.4765625000,71,-181.0000000000,,,
4.4785156250,71,-152.0000000000,,,
4.4804687500,71,-67.0000000000,,,
4.4824218750,71,-25.0000000000,,,
4.4843750000,71,-73.0000000000,,,
4.4863281250,71,-163.0000000000,,,
4.4882812500,71,-171.0000000000,,,
4.4902343750,71,-119.0000000000,,,
4.4921875000,71,-148.0000000000,,,
4.4941406250,71,-195.0000000000,,,
4.4960937500,71,-122.0000000000,,,
4.4980468750,71,9.0000000000,,,
4.5000000000,72,60.0000000000,,,
4.5019531250,72,-4.0000000000,,,
4.5039062500,72,-88.0000000000,,,
4.5058593750,72,-76.0000000000,,,
4.5078125000,72,-53.0000000000,,,
4.5097656250,72,-85.0000000000,,,
4.5117187500,72,-85.0000000000,,,
4.5136718750,72,-22.0000000000,,,
4.5156250000,72,20.0000000000,,,
4.5175781250,72,-6.0000000000,,,
4.5195312500,72,-90.0000000000,,,
4.5214843750,72,-117.0000000000,,,
4.5234375000,72,-73.0000000000,,,
4.5253906250,72,-85.0000000000,,,
4.5273437500,72,-123.0000000000,,,
4.5292968750,72,-85.0000000000,,,
4.5312500000,72,20.0000000000,,,
4.5332031250,72,72.0000000000,,,
4.5351562500,72,16.0000000000,,,
4.5371093750,72,-73.0000000000,,,
4.5390625000,72,-88.0000000000,,,
4.5410156250,72,-76.0000000000,,,
4.5429687500,72,-114.0000000000,,,
4.5449218750,72,-103.0000000000,,,
4.5468750000,72,7.0000000000,,,
4.5488281250,72,104.0000000000,,,
4.5507812500,72,92.0000000000,,,
4.5527343750,72,-10.0000000000,,,
4.5546875000,72,-61.0000000000,,,
4.5566406250,72,-6.0000000000,,,
4.5585937500,72,7.0000000000,,,
4.5605468750,72,-29.0000000000,,,
4.5625000000,73,-7.0000000000,,,
4.5644531250,73,100.0000000000,,,
4.5664062500,73,161.0000000000,,,
4.5683593750,73,108.0000000000,,,
4.5703125000,73,21.0000000000,,,
4.5722656250,73,8.0000000000,,,
4.5742187500,73,23.0000000000,,,
4.5761718750,73,-34.0000000000,,,
4.5781250000,73,-90.0000000000,,,
4.5800781250,73,-21.0000000000,,,
4.5820312500,73,97.0000000000,,,
4.5839843750,73,103.0000000000,,,
4.5859375000,73,-27.0000000000,,,
4.5878906250,73,-110.0000000000,,,
4.5898437500,73,-65.0000000000,,,
4.5917968750,73,-40.0000000000,,,
4.5937500000,73,-86.0000000000,,,
4.5957031250,73,-77.0000000000,,,
4.5976562500,73,-11.0000000000,,,
4.5996093750,73,10.0000000000,,,
4.6015625000,73,-44.0000000000,,,
4.6035156250,73,-103.0000000000,,,
4.6054687500,73,-69.0000000000,,,
4.6074218750,73,-10.0000000000,,,
4.6093750000,73,-36.0000000000,,,
4.6113281250,73,-76.0000000000,,,
4.6132812500,73,-37.0000000000,,,
4.6152343750,73,53.0000000000,,,
4.6171875000,73,75.0000000000,,,
4.6191406250,73,22.0000000000,,,
4.6210937500,73,-21.0000000000,,,
4.6230468750,73,13.0000000000,,,
4.6250000000,74,56.0000000000,,,
4.6269531250,74,37.0000000000,,,
4.6289062500,74,33.0000000000,,,
4.6308593750,74,84.0000000000,,,
4.6328125000,74,117.0000000000,,,
4.6347656250,74,86.0000000000,,,
4.6367187500,74,26.0000000000,,,
4.6386718750,74,11.0000000000,,,
4.6406250000,74,56.0000000000,,,
4.6425781250,74,57.0000000000,,,
4.6445312500,74,27.0000000000,,,
4.6464843750,74,91.0000000000,,,
4.6484375000,74,196.0000000000,,,
4.6503906250,74,208.0000000000,,,
4.6523437500,74,134.0000000000,,,
4.6542968750,74,61.0000000000,,,
4.6562500000,74,67.0000000000,,,
4.6582031250,74,67.0000000000,,,
4.6601562500,74,7.0000000000,,,
4.6621093750,74,10.0000000000,,,
4.6640625000,74,119.0000000000,,,
4.6660156250,74,185.0000000000,,,
4.6679687500,74,132.0000000000,,,
4.6699218750,74,29.0000000000,,,
4.6718750000,74,-4.0000000000,,,
4.6738281250,74,27.0000000000,,,
4.6757812500,74,-8.0000000000,,,
4.6777343750,74,-69.0000000000,,,
4.6796875000,74,-29.0000000000,,,
4.6816406250,74,85.0000000000,,,
4.6835937500,74,154.0000000000,,,
4.6855468750,74,112.0000000000,,,
4.6875000000,75,24.0000000000,,,
4.6894531250,75,18.0000000000,,,
4.6914062500,75,43.0000000000,,,
4.6933593750,75,-9.0000000000,,,
4.6953125000,75,-73.0000000000,,,
4.6972656250,75,-29.0000000000,,,
4.6992187500,75,55.0000000000,,,
4.7011718750,75,72.0000000000,,,
4.7031250000,75,-10.0000000000,,,
4.7050781250,75,-93.0000000000,,,
4.7070312500,75,-92.0000000000,,,
4.7089843750,75,-92.0000000000,,,
4.7109375000,75,-117.0000000000,,,
4.7128906250,75,-60.0000000000,,,
4.7148437500,75,40.0000000000,,,
4.7167968750,75,69.0000000000,,,
4.7187500000,75,21.0000000000,,,
4.7207031250,75,-25.0000000000,,,
4.7226562500,75,-8.0000000000,,,
4.7246093750,75,49.0000000000,,,
4.7265625000,75,32.0000000000,,,
4.7285156250,75,8.0000000000,,,
4.7304687500,75,68.0000000000,,,
4.7324218750,75,146.0000000000,,,
4.7343750000,75,144.0000000000,,,
4.7363281250,75,39.0000000000,,,
4.7382812500,75,-44.0000000000,,,
4.7402343750,75,0.0000000000,,,
4.7421875000,75,52.0000000000,,,
4.7441406250,75,26.0000000000,,,
4.7460937500,75,18.0000000000,,,
4.7480468750,75,60.0000000000,,,
4.7500000000,76,92.0000000000,,,
4.7519531250,76,57.0000000000,,,
4.7539062500,76,-25.0000000000,,,
4.7558593750,76,-46.0000000000,,,
4.7578125000,76,-7.0000000000,,,
4.7597656250,76,-24.0000000000,,,
4.7617187500,76,-82.0000000000,,,
4.7636718750,76,-41.0000000000,,,
4.7656250000,76,80.0000000000,,,
4.7675781250,76,162.0000000000,,,
4.7695312500,76,128.0000000000,,,
4.7714843750,76,42.0000000000,,,
4.7734375000,76,43.0000000000,,,
4.7753906250,76,89.0000000000,,,
4.7773437500,76,74.0000000000,,,
4.7792968750,76,44.0000000000,,,
4.7812500000,76,64.0000000000,,,
4.7832031250,76,102.0000000000,,,
4.7851562500,76,98.0000000000,,,
4.7871093750,76,40.0000000000,,,
4.7890625000,76,-1.0000000000,,,
4.7910156250,76,21.0000000000,,,
4.7929687500,76,27.0000000000,,,
4.7949218750,76,10.0000000000,,,
4.7968750000,76,58.0000000000,,,
4.7988281250,76,151.0000000000,,,
4.8007812500,76,180.0000000000,,,
4.8027343750,76,102.0000000000,,,
4.8046875000,76,21.0000000000,,,
4.8066406250,76,44.0000000000,,,
4.8085937500,76,80.0000000000,,,
4.8105468750,76,36.0000000000,,,
4.8125000000,77,4.0000000000,,,
4.8144531250,77,60.0000000000,,,
4.8164062500,77,139.0000000000,,,
4.8183593750,77,124.0000000000,,,
4.8203125000,77,25.0000000000,,,
4.8222656250,77,-29.0000000000,,,
4.8242187500,77,0.0000000000,,,
4.8261718750,77,11.0000000000,,,
4.8281250000,77,-3.0000000000,,,
4.8300781250,77,33.0000000000,,,
4.8320312500,77,108.0000000000,,,
4.8339843750,77,148.0000000000,,,
4.8359375000,77,98.0000000000,,,
4.8378906250,77,-14.0000000000,,,
4.8398437500,77,-66.0000000000,,,
4.8417968750,77,-19.0000000000,,,
4.8437500000,77,0.0000000000,,,
4.8457031250,77,-11.0000000000,,,
4.8476562500,77,26.0000000000,,,
4.8496093750,77,104.0000000000,,,
4.8515625000,77,125.0000000000,,,
4.8535156250,77,64.0000000000,,,
4.8554687500,77,16.0000000000,,,
4.8574218750,77,59.0000000000,,,
4.8593750000,77,107.0000000000,,,
4.8613281250,77,77.0000000000,,,
4.8632812500,77,26.0000000000,,,
4.8652343750,77,44.0000000000,,,
4.8671875000,77,107.0000000000,,,
4.8691406250,77,119.0000000000,,,
4.8710937500,77,36.0000000000,,,
4.8730468750,77,-11.0000000000,,,
4.8750000000,78,9.0000000000,,,
4.8769531250,78,-5.0000000000,,,
4.8789062500,78,-29.0000000000,,,
4.8808593750,78,26.0000000000,,,
4.8828125000,78,112.0000000000,,,
4.8847656250,78,114.0000000000,,,
4.8867187500,78,48.0000000000,,,
4.8886718750,78,-1.0000000000,,,
4.8906250000,78,13.0000000000,,,
4.8925781250,78,11.0000000000,,,
4.8945312500,78,-42.0000000000,,,
4.8964843750,78,-72.0000000000,,,
4.8984375000,78,-12.0000000000,,,
4.9003906250,78,70.0000000000,,,
4.9023437500,78,71.0000000000,,,
4.9042968750,78,-25.0000000000,,,
4.9062500000,78,-85.0000000000,,,
4.9082031250,78,-33.0000000000,,,
4.9101562500,78,-10.0000000000,,,
4.9121093750,78,-33.0000000000,,,
4.9140625000,78,2.0000000000,,,
4.9160156250,78,75.0000000000,,,
4.9179687500,78,106.0000000000,,,
4.9199218750,78,65.0000000000,,,
4.9218750000,78,6.0000000000,,,
4.9238281250,78,39.0000000000,,,
4.9257812500,78,92.0000000000,,,
4.9277343750,78,60.0000000000,,,
4.9296875000,78,43.0000000000,,,
4.9316406250,78,107.0000000000,,,
4.9335937500,78,180.0000000000,,,
4.9355468750,78,167.0000000000,,,
4.9375000000,79,51.0000000000,,,
4.9394531250,79,-22.0000000000,,,
4.9414062500,79,6.0000000000,,,
4.9433593750,79,19.0000000000,,,
4.9453125000,79,6.0000000000,,,
4.9472656250,79,51.0000000000,,,
4.9492187500,79,153.0000000000,,,
4.9511718750,79,216.0000000000,,,
4.9531250000,79,166.0000000000,,,
4.9550781250,79,28.0000000000,,,
4.9570312500,79,-33.0000000000,,,
4.9589843750,79,-4.0000000000,,,
4.9609375000,79,-7.0000000000,,,
4.9628906250,79,-27.0000000000,,,
4.9648437500,79,16.0000000000,,,
4.9667968750,79,101.0000000000,,,
4.9687500000,79,123.0000000000,,,
4.9707031250,79,40.0000000000,,,
4.9726562500,79,-21.0000000000,,,
4.9746093750,79,32.0000000000,,,
4.9765625000,79,68.0000000000,,,
4.9785156250,79,16.0000000000,,,
4.9804687500,79,11.0000000000,,,
4.9824218750,79,112.0000000000,,,
4.9843750000,79,198.0000000000,,,
4.9863281250,79,184.0000000000,,,
4.9882812500,79,96.0000000000,,,
4.9902343750,79,52.0000000000,,,
4.9921875000,79,56.0000000000,,,
4.9941406250,79,4.0000000000,,,
4.9960937500,79,-33.0000000000,,,
4.9980468750,79,57.0000000000,,,
5.0000000000,80,184.0000000000,,,
5.0019531250,80,200.0000000000,,,
5.0039062500,80,101.0000000000,,,
5.0058593750,80,18.0000000000,,,
5.0078125000,80,23.0000000000,,,
5.0097656250,80,19.0000000000,,,
5.0117187500,80,-35.0000000000,,,
5.0136718750,80,-29.0000000000,,,
5.0156250000,80,52.0000000000,,,
5.0175781250,80,112.0000000000,,,
5.0195312500,80,85.0000000000,,,
5.0214843750,80,4.0000000000,,,
5.0234375000,80,-19.0000000000,,,
5.0253906250,80,25.0000000000,,,
5.0273437500,80,11.0000000000,,,
5.0292968750,80,-44.0000000000,,,
5.0312500000,80,-30.0000000000,,,
5.0332031250,80,59.0000000000,,,
5.0351562500,80,97.0000000000,,,
5.0371093750,80,11.0000000000,,,
5.0390625000,80,-75.0000000000,,,
5.0410156250,80,-39.0000000000,,,
5.0429687500,80,38.0000000000,,,
5.0449218750,80,0.0000000000,,,
5.0468750000,80,-59.0000000000,,,
5.0488281250,80,8.0000000000,,,
5.0507812500,80,103.0000000000,,,
5.0527343750,80,72.0000000000,,,
5.0546875000,80,-33.0000000000,,,
5.0566406250,80,-62.0000000000,,,
5.0585937500,80,-2.0000000000,,,
5.0605468750,80,35.0000000000,,,
5.0625000000,81,6.0000000000,,,
5.0644531250,81,10.0000000000,,,
5.0664062500,81,91.0000000000,,,
5.0683593750,81,152.0000000000,,,
5.0703125000,81,119.0000000000,,,
5.0722656250,81,25.0000000000,,,
5.0742187500,81,2.0000000000,,,
5.0761718750,81,27.0000000000,,,
5.0781250000,81,-10.0000000000,,,
5.0800781250,81,-42.0000000000,,,
5.0820312500,81,32.0000000000,,,
5.0839843750,81,162.0000000000,,,
5.0859375000,81,202.0000000000,,,
5.0878906250,81,101.0000000000,,,
5.0898437500,81,-4.0000000000,,,
5.0917968750,81,26.0000000000,,,
5.0937500000,81,70.0000000000,,,
5.0957031250,81,36.0000000000,,,
5.0976562500,81,18.0000000000,,,
5.0996093750,81,84.0000000000,,,
5.1015625000,81,150.0000000000,,,
5.1035156250,81,123.0000000000,,,
5.1054687500,81,43.0000000000,,,
5.1074218750,81,25.0000000000,,,
5.1093750000,81,75.0000000000,,,
5.1113281250,81,88.0000000000,,,
5.1132812500,81,72.0000000000,,,
5.1152343750,81,88.0000000000,,,
5.1171875000,81,121.0000000000,,,
5.1191406250,81,128.0000000000,,,
5.1210937500,81,70.0000000000,,,
5.1230468750,81,7.0000000000,,,
5.1250000000,82,40.0000000000,,,
5.1269531250,82,76.0000000000,,,
5.1289062500,82,25.0000000000,,,
5.1308593750,82,0.0000000000,,,
5.1328125000,82,106.0000000000,,,
5.1347656250,82,209.0000000000,,,
5.1367187500,82,171.0000000000,,,
5.1386718750,82,37.0000000000,,,
5.1406250000,82,-22.0000000000,,,
5.1425781250,82,28.0000000000,,,
5.1445312500,82,41.0000000000,,,
5.1464843750,82,-3.0000000000,,,
5.1484375000,82,3.0000000000,,,
5.1503906250,82,85.0000000000,,,
5.1523437500,82,139.0000000000,,,
5.1542968750,82,90.0000000000,,,
5.1562500000,82,-4.0000000000,,,
5.1582031250,82,-17.0000000000,,,
5.1601562500,82,29.0000000000,,,
5.1621093750,82,3.0000000000,,,
5.1640625000,82,-43.0000000000,,,
5.1660156250,82,-22.0000000000,,,
5.1679687500,82,26.0000000000,,,
5.1699218750,82,18.0000000000,,,
5.1718750000,82,-69.0000000000,,,
5.1738281250,82,-117.0000000000,,,
5.1757812500,82,-56.0000000000,,,
5.1777343750,82,-29.0000000000,,,
5.1796875000,82,-76.0000000000,,,
5.1816406250,82,-74.0000000000,,,
5.1835937500,82,34.0000000000,,,
5.1855468750,82,120.0000000000,,,
