Time:512Hz,Epoch,Electrode,Attention,Meditation,Event Id,Event Date,Event Duration
0.0000000000,0,4.0000000000,38.0000000000,35.0000000000,,,
0.0019531250,0,-14.0000000000,38.0000000000,35.0000000000,,,
0.0039062500,0,-17.0000000000,38.0000000000,35.0000000000,,,
0.0058593750,0,-9.0000000000,38.0000000000,35.0000000000,,,
0.0078125000,0,0.0000000000,38.0000000000,35.0000000000,,,
0.0097656250,0,5.0000000000,38.0000000000,35.0000000000,,,
0.0117187500,0,3.0000000000,38.0000000000,35.0000000000,,,
0.0136718750,0,17.0000000000,38.0000000000,35.0000000000,,,
0.0156250000,0,33.0000000000,38.0000000000,35.0000000000,,,
0.0175781250,0,35.0000000000,38.0000000000,35.0000000000,,,
0.0195312500,0,28.0000000000,38.0000000000,35.0000000000,,,
0.0214843750,0,28.0000000000,38.0000000000,35.0000000000,,,
0.0234375000,0,33.0000000000,38.0000000000,35.0000000000,,,
0.0253906250,0,19.0000000000,38.0000000000,35.0000000000,,,
0.0273437500,0,-2.0000000000,38.0000000000,35.0000000000,,,
0.0292968750,0,1.0000000000,38.0000000000,35.0000000000,,,
0.0312500000,0,21.0000000000,38.0000000000,35.0000000000,,,
0.0332031250,0,19.0000000000,38.0000000000,35.0000000000,,,
0.0351562500,0,-3.0000000000,38.0000000000,35.0000000000,,,
0.0371093750,0,-9.0000000000,38.0000000000,35.0000000000,,,
0.0390625000,0,-7.0000000000,38.0000000000,35.0000000000,,,
0.0410156250,0,-10.0000000000,38.0000000000,35.0000000000,,,
0.0429687500,0,-18.0000000000,38.0000000000,35.0000000000,,,
0.0449218750,0,-17.0000000000,38.0000000000,35.0000000000,,,
0.0468750000,0,-11.0000000000,38.0000000000,35.0000000000,,,
0.0488281250,0,-9.0000000000,38.0000000000,35.0000000000,,,
0.0507812500,0,-14.0000000000,38.0000000000,35.0000000000,,,
0.0527343750,0,-9.0000000000,38.0000000000,35.0000000000,,,
0.0546875000,0,7.0000000000,38.0000000000,35.0000000000,,,
0.0566406250,0,1.0000000000,38.0000000000,35.0000000000,,,
0.0585937500,0,-12.0000000000,38.0000000000,35.0000000000,,,
0.0605468750,0,-13.0000000000,38.0000000000,35.0000000000,,,
0.0625000000,1,7.0000000000,38.0000000000,35.0000000000,,,
0.0644531250,1,21.0000000000,38.0000000000,35.0000000000,,,
0.0664062500,1,3.0000000000,38.0000000000,35.0000000000,,,
0.0683593750,1,-20.0000000000,38.0000000000,35.0000000000,,,
0.0703125000,1,-20.0000000000,38.0000000000,35.0000000000,,,
0.0722656250,1,6.0000000000,38.0000000000,35.0000000000,,,
0.0742187500,1,26.0000000000,38.0000000000,35.0000000000,,,
0.0761718750,1,26.0000000000,38.0000000000,35.0000000000,,,
0.0781250000,1,13.0000000000,38.0000000000,35.0000000000,,,
0.0800781250,1,11.0000000000,38.0000000000,35.0000000000,,,
0.0820312500,1,19.0000000000,38.0000000000,35.0000000000,,,
0.0839843750,1,22.0000000000,38.0000000000,35.0000000000,,,
0.0859375000,1,12.0000000000,38.0000000000,35.0000000000,,,
0.0878906250,1,9.0000000000,38.0000000000,35.0000000000,,,
0.0898437500,1,5.0000000000,38.0000000000,35.0000000000,,,
0.0917968750,1,-8.0000000000,38.0000000000,35.0000000000,,,
0.0937500000,1,-21.0000000000,38.0000000000,35.0000000000,,,
0.0957031250,1,-19.0000000000,38.0000000000,35.0000000000,,,
0.0976562500,1,-4.0000000000,38.0000000000,35.0000000000,,,
0.0996093750,1,1.0000000000,38.0000000000,35.0000000000,,,
0.1015625000,1,8.0000000000,38.0000000000,35.0000000000,,,
0.1035156250,1,21.0000000000,38.0000000000,35.0000000000,,,
0.1054687500,1,27.0000000000,38.0000000000,35.0000000000,,,
0.1074218750,1,17.0000000000,38.0000000000,35.0000000000,,,
0.1093750000,1,-10.0000000000,38.0000000000,35.0000000000,,,
0.1113281250,1,-28.0000000000,38.0000000000,35.0000000000,,,
0.1132812500,1,-17.0000000000,38.0000000000,35.0000000000,,,
0.1152343750,1,5.0000000000,38.0000000000,35.0000000000,,,
0.1171875000,1,6.0000000000,38.0000000000,35.0000000000,,,
0.1191406250,1,-4.0000000000,38.0000000000,35.0000000000,,,
0.1210937500,1,-3.0000000000,38.0000000000,35.0000000000,,,
0.1230468750,1,11.0000000000,38.0000000000,35.0000000000,,,
0.1250000000,2,21.0000000000,38.0000000000,35.0000000000,,,
0.1269531250,2,24.0000000000,38.0000000000,35.0000000000,,,
0.1289062500,2,37.0000000000,38.0000000000,35.0000000000,,,
0.1308593750,2,64.0000000000,38.0000000000,35.0000000000,,,
0.1328125000,2,68.0000000000,38.0000000000,35.0000000000,,,
0.1347656250,2,40.0000000000,38.0000000000,35.0000000000,,,
0.1367187500,2,10.0000000000,38.0000000000,35.0000000000,,,
0.1386718750,2,10.0000000000,38.0000000000,35.0000000000,,,
0.1406250000,2,24.0000000000,38.0000000000,35.0000000000,,,
0.1425781250,2,28.0000000000,38.0000000000,35.0000000000,,,
0.1445312500,2,34.0000000000,38.0000000000,35.0000000000,,,
0.1464843750,2,49.0000000000,38.0000000000,35.0000000000,,,
0.1484375000,2,53.0000000000,38.0000000000,35.0000000000,,,
0.1503906250,2,39.0000000000,38.0000000000,35.0000000000,,,
0.1523437500,2,17.0000000000,38.0000000000,35.0000000000,,,
0.1542968750,2,8.0000000000,38.0000000000,35.0000000000,,,
0.1562500000,2,16.0000000000,38.0000000000,35.0000000000,,,
0.1582031250,2,13.0000000000,38.0000000000,35.0000000000,,,
0.1601562500,2,1.0000000000,38.0000000000,35.0000000000,,,
0.1621093750,2,3.0000000000,38.0000000000,35.0000000000,,,
0.1640625000,2,35.0000000000,38.0000000000,35.0000000000,,,
0.1660156250,2,57.0000000000,38.0000000000,35.0000000000,,,
0.1679687500,2,55.0000000000,38.0000000000,35.0000000000,,,
0.1699218750,2,50.0000000000,38.0000000000,35.0000000000,,,
0.1718750000,2,53.0000000000,38.0000000000,35.0000000000,,,
0.1738281250,2,48.0000000000,38.0000000000,35.0000000000,,,
0.1757812500,2,26.0000000000,38.0000000000,35.0000000000,,,
0.1777343750,2,26.0000000000,38.0000000000,35.0000000000,,,
0.1796875000,2,50.0000000000,38.0000000000,35.0000000000,,,
0.1816406250,2,71.0000000000,38.0000000000,35.0000000000,,,
0.1835937500,2,68.0000000000,38.0000000000,35.0000000000,,,
0.1855468750,2,50.0000000000,38.0000000000,35.0000000000,,,
0.1875000000,3,35.0000000000,38.0000000000,35.0000000000,,,
0.1894531250,3,32.0000000000,38.0000000000,35.0000000000,,,
0.1914062500,3,34.0000000000,38.0000000000,35.0000000000,,,
0.1933593750,3,13.0000000000,38.0000000000,35.0000000000,,,
0.1953125000,3,2.0000000000,38.0000000000,35.0000000000,,,
0.1972656250,3,22.0000000000,38.0000000000,35.0000000000,,,
0.1992187500,3,42.0000000000,38.0000000000,35.0000000000,,,
0.2011718750,3,37.0000000000,38.0000000000,35.0000000000,,,
0.2031250000,3,32.0000000000,38.0000000000,35.0000000000,,,
0.2050781250,3,40.0000000000,38.0000000000,35.0000000000,,,
0.2070312500,3,38.0000000000,38.0000000000,35.0000000000,,,
0.2089843750,3,21.0000000000,38.0000000000,35.0000000000,,,
0.2109375000,3,8.0000000000,38.0000000000,35.0000000000,,,
0.2128906250,3,8.0000000000,38.0000000000,35.0000000000,,,
0.2148437500,3,17.0000000000,38.0000000000,35.0000000000,,,
0.2167968750,3,26.0000000000,38.0000000000,35.0000000000,,,
0.2187500000,3,37.0000000000,38.0000000000,35.0000000000,,,
0.2207031250,3,44.0000000000,38.0000000000,35.0000000000,,,
0.2226562500,3,50.0000000000,38.0000000000,35.0000000000,,,
0.2246093750,3,41.0000000000,38.0000000000,35.0000000000,,,
0.2265625000,3,24.0000000000,38.0000000000,35.0000000000,,,
0.2285156250,3,33.0000000000,38.0000000000,35.0000000000,,,
0.2304687500,3,58.0000000000,38.0000000000,35.0000000000,,,
0.2324218750,3,57.0000000000,38.0000000000,35.0000000000,,,
0.2343750000,3,32.0000000000,38.0000000000,35.0000000000,,,
0.2363281250,3,21.0000000000,38.0000000000,35.0000000000,,,
0.2382812500,3,49.0000000000,38.0000000000,35.0000000000,,,
0.2402343750,3,80.0000000000,38.0000000000,35.0000000000,,,
0.2421875000,3,74.0000000000,38.0000000000,35.0000000000,,,
0.2441406250,3,54.0000000000,38.0000000000,35.0000000000,,,
0.2460937500,3,41.0000000000,38.0000000000,35.0000000000,,,
0.2480468750,3,44.0000000000,38.0000000000,35.0000000000,,,
0.2500000000,4,52.0000000000,38.0000000000,35.0000000000,,,
0.2519531250,4,42.0000000000,38.0000000000,35.0000000000,,,
0.2539062500,4,24.0000000000,38.0000000000,35.0000000000,,,
0.2558593750,4,2.0000000000,38.0000000000,35.0000000000,,,
0.2578125000,4,-22.0000000000,38.0000000000,35.0000000000,,,
0.2597656250,4,-30.0000000000,38.0000000000,35.0000000000,,,
0.2617187500,4,-14.0000000000,38.0000000000,35.0000000000,,,
0.2636718750,4,19.0000000000,38.0000000000,35.0000000000,,,
0.2656250000,4,40.0000000000,38.0000000000,35.0000000000,,,
0.2675781250,4,29.0000000000,38.0000000000,35.0000000000,,,
0.2695312500,4,5.0000000000,38.0000000000,35.0000000000,,,
0.2714843750,4,-6.0000000000,38.0000000000,35.0000000000,,,
0.2734375000,4,2.0000000000,38.0000000000,35.0000000000,,,
0.2753906250,4,12.0000000000,38.0000000000,35.0000000000,,,
0.2773437500,4,8.0000000000,38.0000000000,35.0000000000,,,
0.2792968750,4,9.0000000000,38.0000000000,35.0000000000,,,
0.2812500000,4,26.0000000000,38.0000000000,35.0000000000,,,
0.2832031250,4,38.0000000000,38.0000000000,35.0000000000,,,
0.2851562500,4,29.0000000000,38.0000000000,35.0000000000,,,
0.2871093750,4,6.0000000000,38.0000000000,35.0000000000,,,
0.2890625000,4,-2.0000000000,38.0000000000,35.0000000000,,,
0.2910156250,4,1.0000000000,38.0000000000,35.0000000000,,,
0.2929687500,4,2.0000000000,38.0000000000,35.0000000000,,,
0.2949218750,4,3.0000000000,38.0000000000,35.0000000000,,,
0.2968750000,4,20.0000000000,38.0000000000,35.0000000000,,,
0.2988281250,4,41.0000000000,38.0000000000,35.0000000000,,,
0.3007812500,4,51.0000000000,38.0000000000,35.0000000000,,,
0.3027343750,4,45.0000000000,38.0000000000,35.0000000000,,,
0.3046875000,4,48.0000000000,38.0000000000,35.0000000000,,,
0.3066406250,4,57.0000000000,38.0000000000,35.0000000000,,,
0.3085937500,4,58.0000000000,38.0000000000,35.0000000000,,,
0.3105468750,4,58.0000000000,38.0000000000,35.0000000000,,,
0.3125000000,5,60.0000000000,38.0000000000,35.0000000000,,,
0.3144531250,5,60.0000000000,38.0000000000,35.0000000000,,,
0.3164062500,5,51.0000000000,38.0000000000,35.0000000000,,,
0.3183593750,5,41.0000000000,38.0000000000,35.0000000000,,,
0.3203125000,5,43.0000000000,38.0000000000,35.0000000000,,,
0.3222656250,5,49.0000000000,38.0000000000,35.0000000000,,,
0.3242187500,5,34.0000000000,38.0000000000,35.0000000000,,,
0.3261718750,5,8.0000000000,38.0000000000,35.0000000000,,,
0.3281250000,5,-1.0000000000,38.0000000000,35.0000000000,,,
0.3300781250,5,16.0000000000,38.0000000000,35.0000000000,,,
0.3320312500,5,52.0000000000,38.0000000000,35.0000000000,,,
0.3339843750,5,73.0000000000,38.0000000000,35.0000000000,,,
0.3359375000,5,60.0000000000,38.0000000000,35.0000000000,,,
0.3378906250,5,57.0000000000,38.0000000000,35.0000000000,,,
0.3398437500,5,66.0000000000,38.0000000000,35.0000000000,,,
0.3417968750,5,56.0000000000,38.0000000000,35.0000000000,,,
0.3437500000,5,44.0000000000,38.0000000000,35.0000000000,,,
0.3457031250,5,56.0000000000,38.0000000000,35.0000000000,,,
0.3476562500,5,86.0000000000,38.0000000000,35.0000000000,,,
0.3496093750,5,92.0000000000,38.0000000000,35.0000000000,,,
0.3515625000,5,74.0000000000,38.0000000000,35.0000000000,,,
0.3535156250,5,53.0000000000,38.0000000000,35.0000000000,,,
0.3554687500,5,54.0000000000,38.0000000000,35.0000000000,,,
0.3574218750,5,66.0000000000,38.0000000000,35.0000000000,,,
0.3593750000,5,67.0000000000,38.0000000000,35.0000000000,,,
0.3613281250,5,66.0000000000,38.0000000000,35.0000000000,,,
0.3632812500,5,73.0000000000,38.0000000000,35.0000000000,,,
0.3652343750,5,74.0000000000,38.0000000000,35.0000000000,,,
0.3671875000,5,65.0000000000,38.0000000000,35.0000000000,,,
0.3691406250,5,49.0000000000,38.0000000000,35.0000000000,,,
0.3710937500,5,41.0000000000,38.0000000000,35.0000000000,,,
0.3730468750,5,49.0000000000,38.0000000000,35.0000000000,,,
0.3750000000,6,53.0000000000,38.0000000000,35.0000000000,,,
0.3769531250,6,51.0000000000,38.0000000000,35.0000000000,,,
0.3789062500,6,43.0000000000,38.0000000000,35.0000000000,,,
0.3808593750,6,54.0000000000,38.0000000000,35.0000000000,,,
0.3828125000,6,60.0000000000,38.0000000000,35.0000000000,,,
0.3847656250,6,44.0000000000,38.0000000000,35.0000000000,,,
0.3867187500,6,16.0000000000,38.0000000000,35.0000000000,,,
0.3886718750,6,6.0000000000,38.0000000000,35.0000000000,,,
0.3906250000,6,13.0000000000,38.0000000000,35.0000000000,,,
0.3925781250,6,18.0000000000,38.0000000000,35.0000000000,,,
0.3945312500,6,17.0000000000,38.0000000000,35.0000000000,,,
0.3964843750,6,24.0000000000,38.0000000000,35.0000000000,,,
0.3984375000,6,40.0000000000,38.0000000000,35.0000000000,,,
0.4003906250,6,48.0000000000,38.0000000000,35.0000000000,,,
0.4023437500,6,49.0000000000,38.0000000000,35.0000000000,,,
0.4042968750,6,52.0000000000,38.0000000000,35.0000000000,,,
0.4062500000,6,64.0000000000,38.0000000000,35.0000000000,,,
0.4082031250,6,60.0000000000,38.0000000000,35.0000000000,,,
0.4101562500,6,39.0000000000,38.0000000000,35.0000000000,,,
0.4121093750,6,19.0000000000,38.0000000000,35.0000000000,,,
0.4140625000,6,19.0000000000,38.0000000000,35.0000000000,,,
0.4160156250,6,32.0000000000,38.0000000000,35.0000000000,,,
0.4179687500,6,50.0000000000,38.0000000000,35.0000000000,,,
0.4199218750,6,69.0000000000,38.0000000000,35.0000000000,,,
0.4218750000,6,84.0000000000,38.0000000000,35.0000000000,,,
0.4238281250,6,81.0000000000,38.0000000000,35.0000000000,,,
0.4257812500,6,60.0000000000,38.0000000000,35.0000000000,,,
0.4277343750,6,49.0000000000,38.0000000000,35.0000000000,,,
0.4296875000,6,52.0000000000,38.0000000000,35.0000000000,,,
0.4316406250,6,73.0000000000,38.0000000000,35.0000000000,,,
0.4335937500,6,83.0000000000,38.0000000000,35.0000000000,,,
0.4355468750,6,64.0000000000,38.0000000000,35.0000000000,,,
0.4375000000,7,42.0000000000,38.0000000000,35.0000000000,,,
0.4394531250,7,54.0000000000,38.0000000000,35.0000000000,,,
0.4414062500,7,80.0000000000,38.0000000000,35.0000000000,,,
0.4433593750,7,88.0000000000,38.0000000000,35.0000000000,,,
0.4453125000,7,73.0000000000,38.0000000000,35.0000000000,,,
0.4472656250,7,72.0000000000,38.0000000000,35.0000000000,,,
0.4492187500,7,93.0000000000,38.0000000000,35.0000000000,,,
0.4511718750,7,92.0000000000,38.0000000000,35.0000000000,,,
0.4531250000,7,68.0000000000,38.0000000000,35.0000000000,,,
0.4550781250,7,61.0000000000,38.0000000000,35.0000000000,,,
0.4570312500,7,71.0000000000,38.0000000000,35.0000000000,,,
0.4589843750,7,67.0000000000,38.0000000000,35.0000000000,,,
0.4609375000,7,60.0000000000,38.0000000000,35.0000000000,,,
0.4628906250,7,70.0000000000,38.0000000000,35.0000000000,,,
0.4648437500,7,80.0000000000,38.0000000000,35.0000000000,,,
0.4667968750,7,67.0000000000,38.0000000000,35.0000000000,,,
0.4687500000,7,49.0000000000,38.0000000000,35.0000000000,,,
0.4707031250,7,25.0000000000,38.0000000000,35.0000000000,,,
0.4726562500,7,-6.0000000000,38.0000000000,35.0000000000,,,
0.4746093750,7,-4.0000000000,38.0000000000,35.0000000000,,,
0.4765625000,7,24.0000000000,38.0000000000,35.0000000000,,,
0.4785156250,7,39.0000000000,38.0000000000,35.0000000000,,,
0.4804687500,7,83.0000000000,38.0000000000,35.0000000000,,,
0.4824218750,7,148.0000000000,38.0000000000,35.0000000000,,,
0.4843750000,7,183.0000000000,38.0000000000,35.0000000000,,,
0.4863281250,7,183.0000000000,38.0000000000,35.0000000000,,,
0.4882812500,7,180.0000000000,38.0000000000,35.0000000000,,,
0.4902343750,7,186.0000000000,38.0000000000,35.0000000000,,,
0.4921875000,7,199.0000000000,38.0000000000,35.0000000000,,,
0.4941406250,7,197.0000000000,38.0000000000,35.0000000000,,,
0.4960937500,7,167.0000000000,38.0000000000,35.0000000000,,,
0.4980468750,7,137.0000000000,38.0000000000,35.0000000000,,,
0.5000000000,8,140.0000000000,38.0000000000,35.0000000000,,,
0.5019531250,8,161.0000000000,38.0000000000,35.0000000000,,,
0.5039062500,8,176.0000000000,38.0000000000,35.0000000000,,,
0.5058593750,8,185.0000000000,38.0000000000,35.0000000000,,,
0.5078125000,8,179.0000000000,38.0000000000,35.0000000000,,,
0.5097656250,8,169.0000000000,38.0000000000,35.0000000000,,,
0.5117187500,8,167.0000000000,38.0000000000,35.0000000000,,,
0.5136718750,8,167.0000000000,38.0000000000,35.0000000000,,,
0.5156250000,8,154.0000000000,38.0000000000,35.0000000000,,,
0.5175781250,8,124.0000000000,38.0000000000,35.0000000000,,,
0.5195312500,8,97.0000000000,38.0000000000,35.0000000000,,,
0.5214843750,8,80.0000000000,38.0000000000,35.0000000000,,,
0.5234375000,8,83.0000000000,38.0000000000,35.0000000000,,,
0.5253906250,8,77.0000000000,38.0000000000,35.0000000000,,,
0.5273437500,8,56.0000000000,38.0000000000,35.0000000000,,,
0.5292968750,8,27.0000000000,38.0000000000,35.0000000000,,,
0.5312500000,8,9.0000000000,38.0000000000,35.0000000000,,,
0.5332031250,8,7.0000000000,38.0000000000,35.0000000000,,,
0.5351562500,8,6.0000000000,38.0000000000,35.0000000000,,,
0.5371093750,8,6.0000000000,38.0000000000,35.0000000000,,,
0.5390625000,8,11.0000000000,38.0000000000,35.0000000000,,,
0.5410156250,8,19.0000000000,38.0000000000,35.0000000000,,,
0.5429687500,8,13.0000000000,38.0000000000,35.0000000000,,,
0.5449218750,8,-12.0000000000,38.0000000000,35.0000000000,,,
0.5468750000,8,-40.0000000000,38.0000000000,35.0000000000,,,
0.5488281250,8,-45.0000000000,38.0000000000,35.0000000000,,,
0.5507812500,8,-55.0000000000,38.0000000000,35.0000000000,,,
0.5527343750,8,-78.0000000000,38.0000000000,35.0000000000,,,
0.5546875000,8,-72.0000000000,38.0000000000,35.0000000000,,,
0.5566406250,8,-37.0000000000,38.0000000000,35.0000000000,,,
0.5585937500,8,-20.0000000000,38.0000000000,35.0000000000,,,
0.5605468750,8,-20.0000000000,38.0000000000,35.0000000000,,,
0.5625000000,9,-22.0000000000,38.0000000000,35.0000000000,,,
0.5644531250,9,-11.0000000000,38.0000000000,35.0000000000,,,
0.5664062500,9,1.0000000000,38.0000000000,35.0000000000,,,
0.5683593750,9,6.0000000000,38.0000000000,35.0000000000,,,
0.5703125000,9,-7.0000000000,38.0000000000,35.0000000000,,,
0.5722656250,9,-30.0000000000,38.0000000000,35.0000000000,,,
0.5742187500,9,-34.0000000000,38.0000000000,35.0000000000,,,
0.5761718750,9,-34.0000000000,38.0000000000,35.0000000000,,,
0.5781250000,9,-52.0000000000,38.0000000000,35.0000000000,,,
0.5800781250,9,-40.0000000000,38.0000000000,35.0000000000,,,
0.5820312500,9,18.0000000000,38.0000000000,35.0000000000,,,
0.5839843750,9,69.0000000000,38.0000000000,35.0000000000,,,
0.5859375000,9,91.0000000000,38.0000000000,35.0000000000,,,
0.5878906250,9,103.0000000000,38.0000000000,35.0000000000,,,
0.5898437500,9,109.0000000000,38.0000000000,35.0000000000,,,
0.5917968750,9,116.0000000000,38.0000000000,35.0000000000,,,
0.5937500000,9,114.0000000000,38.0000000000,35.0000000000,,,
0.5957031250,9,119.0000000000,38.0000000000,35.0000000000,,,
0.5976562500,9,152.0000000000,38.0000000000,35.0000000000,,,
0.5996093750,9,200.0000000000,38.0000000000,35.0000000000,,,
0.6015625000,9,227.0000000000,38.0000000000,35.0000000000,,,
0.6035156250,9,233.0000000000,38.0000000000,35.0000000000,,,
0.6054687500,9,251.0000000000,38.0000000000,35.0000000000,,,
0.6074218750,9,269.0000000000,38.0000000000,35.0000000000,,,
0.6093750000,9,274.0000000000,38.0000000000,35.0000000000,,,
0.6113281250,9,261.0000000000,38.0000000000,35.0000000000,,,
0.6132812500,9,253.0000000000,38.0000000000,35.0000000000,,,
0.6152343750,9,288.0000000000,38.0000000000,35.0000000000,,,
0.6171875000,9,309.0000000000,38.0000000000,35.0000000000,,,
0.6191406250,9,272.0000000000,38.0000000000,35.0000000000,,,
0.6210937500,9,212.0000000000,38.0000000000,35.0000000000,,,
0.6230468750,9,184.0000000000,38.0000000000,35.0000000000,,,
0.6250000000,10,179.0000000000,38.0000000000,35.0000000000,,,
0.6269531250,10,164.0000000000,38.0000000000,35.0000000000,,,
0.6289062500,10,124.0000000000,38.0000000000,35.0000000000,,,
0.6308593750,10,75.0000000000,38.0000000000,35.0000000000,,,
0.6328125000,10,34.0000000000,38.0000000000,35.0000000000,,,
0.6347656250,10,1.0000000000,38.0000000000,35.0000000000,,,
0.6367187500,10,-12.0000000000,38.0000000000,35.0000000000,,,
0.6386718750,10,-5.0000000000,38.0000000000,35.0000000000,,,
0.6406250000,10,-3.0000000000,38.0000000000,35.0000000000,,,
0.6425781250,10,-36.0000000000,38.0000000000,35.0000000000,,,
0.6445312500,10,-81.0000000000,38.0000000000,35.0000000000,,,
0.6464843750,10,-88.0000000000,38.0000000000,35.0000000000,,,
0.6484375000,10,-70.0000000000,38.0000000000,35.0000000000,,,
0.6503906250,10,-86.0000000000,38.0000000000,35.0000000000,,,
0.6523437500,10,-126.0000000000,38.0000000000,35.0000000000,,,
0.6542968750,10,-153.0000000000,38.0000000000,35.0000000000,,,
0.6562500000,10,-163.0000000000,38.0000000000,35.0000000000,,,
0.6582031250,10,-170.0000000000,38.0000000000,35.0000000000,,,
0.6601562500,10,-186.0000000000,38.0000000000,35.0000000000,,,
0.6621093750,10,-199.0000000000,38.0000000000,35.0000000000,,,
0.6640625000,10,-190.0000000000,47.0000000000,20.0000000000,,,
0.6660156250,10,-172.0000000000,47.0000000000,20.0000000000,,,
0.6679687500,10,-174.0000000000,47.0000000000,20.0000000000,,,
0.6699218750,10,-194.0000000000,47.0000000000,20.0000000000,,,
0.6718750000,10,-199.0000000000,47.0000000000,20.0000000000,,,
0.6738281250,10,-201.0000000000,47.0000000000,20.0000000000,,,
0.6757812500,10,-228.0000000000,47.0000000000,20.0000000000,,,
0.6777343750,10,-262.0000000000,47.0000000000,20.0000000000,,,
0.6796875000,10,-269.0000000000,47.0000000000,20.0000000000,,,
0.6816406250,10,-232.0000000000,47.0000000000,20.0000000000,,,
0.6835937500,10,-185.0000000000,47.0000000000,20.0000000000,,,
0.6855468750,10,-200.0000000000,47.0000000000,20.0000000000,,,
0.6875000000,11,-253.0000000000,47.0000000000,20.0000000000,,,
0.6894531250,11,-268.0000000000,47.0000000000,20.0000000000,,,
0.6914062500,11,-248.0000000000,47.0000000000,20.0000000000,,,
0.6933593750,11,-222.0000000000,47.0000000000,20.0000000000,,,
0.6953125000,11,-210.0000000000,47.0000000000,20.0000000000,,,
0.6972656250,11,-200.0000000000,47.0000000000,20.0000000000,,,
0.6992187500,11,-180.0000000000,47.0000000000,20.0000000000,,,
0.7011718750,11,-162.0000000000,47.0000000000,20.0000000000,,,
0.7031250000,11,-161.0000000000,47.0000000000,20.0000000000,,,
0.7050781250,11,-168.0000000000,47.0000000000,20.0000000000,,,
0.7070312500,11,-171.0000000000,47.0000000000,20.0000000000,,,
0.7089843750,11,-174.0000000000,47.0000000000,20.0000000000,,,
0.7109375000,11,-186.0000000000,47.0000000000,20.0000000000,,,
0.7128906250,11,-189.0000000000,47.0000000000,20.0000000000,,,
0.7148437500,11,-174.0000000000,47.0000000000,20.0000000000,,,
0.7167968750,11,-152.0000000000,47.0000000000,20.0000000000,,,
0.7187500000,11,-148.0000000000,47.0000000000,20.0000000000,,,
0.7207031250,11,-139.0000000000,47.0000000000,20.0000000000,,,
0.7226562500,11,-119.0000000000,47.0000000000,20.0000000000,,,
0.7246093750,11,-108.0000000000,47.0000000000,20.0000000000,,,
0.7265625000,11,-118.0000000000,47.0000000000,20.0000000000,,,
0.7285156250,11,-125.0000000000,47.0000000000,20.0000000000,,,
0.7304687500,11,-117.0000000000,47.0000000000,20.0000000000,,,
0.7324218750,11,-100.0000000000,47.0000000000,20.0000000000,,,
0.7343750000,11,-89.0000000000,47.0000000000,20.0000000000,,,
0.7363281250,11,-99.0000000000,47.0000000000,20.0000000000,,,
0.7382812500,11,-99.0000000000,47.0000000000,20.0000000000,,,
0.7402343750,11,-74.0000000000,47.0000000000,20.0000000000,,,
0.7421875000,11,-59.0000000000,47.0000000000,20.0000000000,,,
0.7441406250,11,-70.0000000000,47.0000000000,20.0000000000,,,
0.7460937500,11,-78.0000000000,47.0000000000,20.0000000000,,,
0.7480468750,11,-59.0000000000,47.0000000000,20.0000000000,,,
0.7500000000,12,-33.0000000000,47.0000000000,20.0000000000,,,
0.7519531250,12,-35.0000000000,47.0000000000,20.0000000000,,,
0.7539062500,12,-51.0000000000,47.0000000000,20.0000000000,,,
0.7558593750,12,-58.0000000000,47.0000000000,20.0000000000,,,
0.7578125000,12,-56.0000000000,47.0000000000,20.0000000000,,,
0.7597656250,12,-52.0000000000,47.0000000000,20.0000000000,,,
0.7617187500,12,-45.0000000000,47.0000000000,20.0000000000,,,
0.7636718750,12,-35.0000000000,47.0000000000,20.0000000000,,,
0.7656250000,12,-9.0000000000,47.0000000000,20.0000000000,,,
0.7675781250,12,8.0000000000,47.0000000000,20.0000000000,,,
0.7695312500,12,10.0000000000,47.0000000000,20.0000000000,,,
0.7714843750,12,7.0000000000,47.0000000000,20.0000000000,,,
0.7734375000,12,12.0000000000,47.0000000000,20.0000000000,,,
0.7753906250,12,22.0000000000,47.0000000000,20.0000000000,,,
0.7773437500,12,23.0000000000,47.0000000000,20.0000000000,,,
0.7792968750,12,25.0000000000,47.0000000000,20.0000000000,,,
0.7812500000,12,39.0000000000,47.0000000000,20.0000000000,,,
0.7832031250,12,43.0000000000,47.0000000000,20.0000000000,,,
0.7851562500,12,41.0000000000,47.0000000000,20.0000000000,,,
0.7871093750,12,38.0000000000,47.0000000000,20.0000000000,,,
0.7890625000,12,39.0000000000,47.0000000000,20.0000000000,,,
0.7910156250,12,41.0000000000,47.0000000000,20.0000000000,,,
0.7929687500,12,37.0000000000,47.0000000000,20.0000000000,,,
0.7949218750,12,38.0000000000,47.0000000000,20.0000000000,,,
0.7968750000,12,41.0000000000,47.0000000000,20.0000000000,,,
0.7988281250,12,55.0000000000,47.0000000000,20.0000000000,,,
0.8007812500,12,67.0000000000,47.0000000000,20.0000000000,,,
0.8027343750,12,57.0000000000,47.0000000000,20.0000000000,,,
0.8046875000,12,33.0000000000,47.0000000000,20.0000000000,,,
0.8066406250,12,23.0000000000,47.0000000000,20.0000000000,,,
0.8085937500,12,36.0000000000,47.0000000000,20.0000000000,,,
0.8105468750,12,40.0000000000,47.0000000000,20.0000000000,,,
0.8125000000,13,41.0000000000,47.0000000000,20.0000000000,,,
0.8144531250,13,48.0000000000,47.0000000000,20.0000000000,,,
0.8164062500,13,59.0000000000,47.0000000000,20.0000000000,,,
0.8183593750,13,64.0000000000,47.0000000000,20.0000000000,,,
0.8203125000,13,50.0000000000,47.0000000000,20.0000000000,,,
0.8222656250,13,58.0000000000,47.0000000000,20.0000000000,,,
0.8242187500,13,85.0000000000,47.0000000000,20.0000000000,,,
0.8261718750,13,96.0000000000,47.0000000000,20.0000000000,,,
0.8281250000,13,81.0000000000,47.0000000000,20.0000000000,,,
0.8300781250,13,68.0000000000,47.0000000000,20.0000000000,,,
0.8320312500,13,85.0000000000,47.0000000000,20.0000000000,,,
0.8339843750,13,108.0000000000,47.0000000000,20.0000000000,,,
0.8359375000,13,103.0000000000,47.0000000000,20.0000000000,,,
0.8378906250,13,74.0000000000,47.0000000000,20.0000000000,,,
0.8398437500,13,66.0000000000,47.0000000000,20.0000000000,,,
0.8417968750,13,75.0000000000,47.0000000000,20.0000000000,,,
0.8437500000,13,77.0000000000,47.0000000000,20.0000000000,,,
0.8457031250,13,75.0000000000,47.0000000000,20.0000000000,,,
0.8476562500,13,87.0000000000,47.0000000000,20.0000000000,,,
0.8496093750,13,107.0000000000,47.0000000000,20.0000000000,,,
0.8515625000,13,118.0000000000,47.0000000000,20.0000000000,,,
0.8535156250,13,105.0000000000,47.0000000000,20.0000000000,,,
0.8554687500,13,93.0000000000,47.0000000000,20.0000000000,,,
0.8574218750,13,102.0000000000,47.0000000000,20.0000000000,,,
0.8593750000,13,97.0000000000,47.0000000000,20.0000000000,,,
0.8613281250,13,68.0000000000,47.0000000000,20.0000000000,,,
0.8632812500,13,58.0000000000,47.0000000000,20.0000000000,,,
0.8652343750,13,80.0000000000,47.0000000000,20.0000000000,,,
0.8671875000,13,97.0000000000,47.0000000000,20.0000000000,,,
0.8691406250,13,72.0000000000,47.0000000000,20.0000000000,,,
0.8710937500,13,28.0000000000,47.0000000000,20.0000000000,,,
0.8730468750,13,41.0000000000,47.0000000000,20.0000000000,,,
0.8750000000,14,112.0000000000,47.0000000000,20.0000000000,,,
0.8769531250,14,170.0000000000,47.0000000000,20.0000000000,,,
0.8789062500,14,184.0000000000,47.0000000000,20.0000000000,,,
0.8808593750,14,180.0000000000,47.0000000000,20.0000000000,,,
0.8828125000,14,171.0000000000,47.0000000000,20.0000000000,,,
0.8847656250,14,166.0000000000,47.0000000000,20.0000000000,,,
0.8867187500,14,180.0000000000,47.0000000000,20.0000000000,,,
0.8886718750,14,194.0000000000,47.0000000000,20.0000000000,,,
0.8906250000,14,202.0000000000,47.0000000000,20.0000000000,,,
0.8925781250,14,192.0000000000,47.0000000000,20.0000000000,,,
0.8945312500,14,153.0000000000,47.0000000000,20.0000000000,,,
0.8964843750,14,125.0000000000,47.0000000000,20.0000000000,,,
0.8984375000,14,129.0000000000,47.0000000000,20.0000000000,,,
0.9003906250,14,147.0000000000,47.0000000000,20.0000000000,,,
0.9023437500,14,178.0000000000,47.0000000000,20.0000000000,,,
0.9042968750,14,183.0000000000,47.0000000000,20.0000000000,,,
0.9062500000,14,149.0000000000,47.0000000000,20.0000000000,,,
0.9082031250,14,116.0000000000,47.0000000000,20.0000000000,,,
0.9101562500,14,106.0000000000,47.0000000000,20.0000000000,,,
0.9121093750,14,107.0000000000,47.0000000000,20.0000000000,,,
0.9140625000,14,112.0000000000,47.0000000000,20.0000000000,,,
0.9160156250,14,113.0000000000,47.0000000000,20.0000000000,,,
0.9179687500,14,107.0000000000,47.0000000000,20.0000000000,,,
0.9199218750,14,93.0000000000,47.0000000000,20.0000000000,,,
0.9218750000,14,70.0000000000,47.0000000000,20.0000000000,,,
0.9238281250,14,69.0000000000,47.0000000000,20.0000000000,,,
0.9257812500,14,81.0000000000,47.0000000000,20.0000000000,,,
0.9277343750,14,73.0000000000,47.0000000000,20.0000000000,,,
0.9296875000,14,64.0000000000,47.0000000000,20.0000000000,,,
0.9316406250,14,66.0000000000,47.0000000000,20.0000000000,,,
0.9335937500,14,81.0000000000,47.0000000000,20.0000000000,,,
0.9355468750,14,84.0000000000,47.0000000000,20.0000000000,,,
0.9375000000,15,76.0000000000,47.0000000000,20.0000000000,,,
0.9394531250,15,73.0000000000,47.0000000000,20.0000000000,,,
0.9414062500,15,76.0000000000,47.0000000000,20.0000000000,,,
0.9433593750,15,70.0000000000,47.0000000000,20.0000000000,,,
0.9453125000,15,55.0000000000,47.0000000000,20.0000000000,,,
0.9472656250,15,68.0000000000,47.0000000000,20.0000000000,,,
0.9492187500,15,103.0000000000,47.0000000000,20.0000000000,,,
0.9511718750,15,113.0000000000,47.0000000000,20.0000000000,,,
0.9531250000,15,89.0000000000,47.0000000000,20.0000000000,,,
0.9550781250,15,80.0000000000,47.0000000000,20.0000000000,,,
0.9570312500,15,88.0000000000,47.0000000000,20.0000000000,,,
0.9589843750,15,77.0000000000,47.0000000000,20.0000000000,,,
0.9609375000,15,32.0000000000,47.0000000000,20.0000000000,,,
0.9628906250,15,10.0000000000,47.0000000000,20.0000000000,,,
0.9648437500,15,40.0000000000,47.0000000000,20.0000000000,,,
0.9667968750,15,85.0000000000,47.0000000000,20.0000000000,,,
0.9687500000,15,102.0000000000,47.0000000000,20.0000000000,,,
0.9707031250,15,82.0000000000,47.0000000000,20.0000000000,,,
0.9726562500,15,59.0000000000,47.0000000000,20.0000000000,,,
0.9746093750,15,59.0000000000,47.0000000000,20.0000000000,,,
0.9765625000,15,54.0000000000,47.0000000000,20.0000000000,,,
0.9785156250,15,39.0000000000,47.0000000000,20.0000000000,,,
0.9804687500,15,24.0000000000,47.0000000000,20.0000000000,,,
0.9824218750,15,25.0000000000,47.0000000000,20.0000000000,,,
0.9843750000,15,40.0000000000,47.0000000000,20.0000000000,,,
0.9863281250,15,42.0000000000,47.0000000000,20.0000000000,,,
0.9882812500,15,35.0000000000,47.0000000000,20.0000000000,,,
0.9902343750,15,34.0000000000,47.0000000000,20.0000000000,,,
0.9921875000,15,34.0000000000,47.0000000000,20.0000000000,,,
0.9941406250,15,32.0000000000,47.0000000000,20.0000000000,,,
0.9960937500,15,36.0000000000,47.0000000000,20.0000000000,,,
0.9980468750,15,50.0000000000,47.0000000000,20.0000000000,,,
1.0000000000,16,64.0000000000,47.0000000000,20.0000000000,,,
1.0019531250,16,59.0000000000,47.0000000000,20.0000000000,,,
1.0039062500,16,32.0000000000,47.0000000000,20.0000000000,,,
1.0058593750,16,8.0000000000,47.0000000000,20.0000000000,,,
1.0078125000,16,19.0000000000,47.0000000000,20.0000000000,,,
1.0097656250,16,38.0000000000,47.0000000000,20.0000000000,,,
1.0117187500,16,38.0000000000,47.0000000000,20.0000000000,,,
1.0136718750,16,26.0000000000,47.0000000000,20.0000000000,,,
1.0156250000,16,22.0000000000,47.0000000000,20.0000000000,,,
1.0175781250,16,38.0000000000,47.0000000000,20.0000000000,,,
1.0195312500,16,55.0000000000,47.0000000000,20.0000000000,,,
1.0214843750,16,49.0000000000,47.0000000000,20.0000000000,,,
1.0234375000,16,43.0000000000,47.0000000000,20.0000000000,,,
1.0253906250,16,50.0000000000,47.0000000000,20.0000000000,,,
1.0273437500,16,36.0000000000,47.0000000000,20.0000000000,,,
1.0292968750,16,17.0000000000,47.0000000000,20.0000000000,,,
1.0312500000,16,23.0000000000,47.0000000000,20.0000000000,,,
1.0332031250,16,50.0000000000,47.0000000000,20.0000000000,,,
1.0351562500,16,53.0000000000,47.0000000000,20.0000000000,,,
1.0371093750,16,28.0000000000,47.0000000000,20.0000000000,,,
1.0390625000,16,11.0000000000,47.0000000000,20.0000000000,,,
1.0410156250,16,20.0000000000,47.0000000000,20.0000000000,,,
1.0429687500,16,22.0000000000,47.0000000000,20.0000000000,,,
1.0449218750,16,13.0000000000,47.0000000000,20.0000000000,,,
1.0468750000,16,10.0000000000,47.0000000000,20.0000000000,,,
1.0488281250,16,17.0000000000,47.0000000000,20.0000000000,,,
1.0507812500,16,33.0000000000,47.0000000000,20.0000000000,,,
1.0527343750,16,49.0000000000,47.0000000000,20.0000000000,,,
1.0546875000,16,48.0000000000,47.0000000000,20.0000000000,,,
1.0566406250,16,40.0000000000,47.0000000000,20.0000000000,,,
1.0585937500,16,27.0000000000,47.0000000000,20.0000000000,,,
1.0605468750,16,-7.0000000000,47.0000000000,20.0000000000,,,
1.0625000000,17,-30.0000000000,47.0000000000,20.0000000000,,,
1.0644531250,17,-6.0000000000,47.0000000000,20.0000000000,,,
1.0664062500,17,51.0000000000,47.0000000000,20.0000000000,,,
1.0683593750,17,89.0000000000,47.0000000000,20.0000000000,,,
1.0703125000,17,87.0000000000,47.0000000000,20.0000000000,,,
1.0722656250,17,70.0000000000,47.0000000000,20.0000000000,,,
1.0742187500,17,71.0000000000,47.0000000000,20.0000000000,,,
1.0761718750,17,92.0000000000,47.0000000000,20.0000000000,,,
1.0781250000,17,106.0000000000,47.0000000000,20.0000000000,,,
1.0800781250,17,101.0000000000,47.0000000000,20.0000000000,,,
1.0820312500,17,87.0000000000,47.0000000000,20.0000000000,,,
1.0839843750,17,74.0000000000,47.0000000000,20.0000000000,,,
1.0859375000,17,55.0000000000,47.0000000000,20.0000000000,,,
1.0878906250,17,28.0000000000,47.0000000000,20.0000000000,,,
1.0898437500,17,6.0000000000,47.0000000000,20.0000000000,,,
1.0917968750,17,6.0000000000,47.0000000000,20.0000000000,,,
1.0937500000,17,18.0000000000,47.0000000000,20.0000000000,,,
1.0957031250,17,21.0000000000,47.0000000000,20.0000000000,,,
1.0976562500,17,28.0000000000,47.0000000000,20.0000000000,,,
1.0996093750,17,40.0000000000,47.0000000000,20.0000000000,,,
1.1015625000,17,40.0000000000,47.0000000000,20.0000000000,,,
1.1035156250,17,38.0000000000,47.0000000000,20.0000000000,,,
1.1054687500,17,36.0000000000,47.0000000000,20.0000000000,,,
1.1074218750,17,36.0000000000,47.0000000000,20.0000000000,,,
1.1093750000,17,41.0000000000,47.0000000000,20.0000000000,,,
1.1113281250,17,42.0000000000,47.0000000000,20.0000000000,,,
1.1132812500,17,39.0000000000,47.0000000000,20.0000000000,,,
1.1152343750,17,33.0000000000,47.0000000000,20.0000000000,,,
1.1171875000,17,32.0000000000,47.0000000000,20.0000000000,,,
1.1191406250,17,23.0000000000,47.0000000000,20.0000000000,,,
1.1210937500,17,8.0000000000,47.0000000000,20.0000000000,,,
1.1230468750,17,3.0000000000,47.0000000000,20.0000000000,,,
1.1250000000,18,12.0000000000,47.0000000000,20.0000000000,,,
1.1269531250,18,20.0000000000,47.0000000000,20.0000000000,,,
1.1289062500,18,16.0000000000,47.0000000000,20.0000000000,,,
1.1308593750,18,9.0000000000,47.0000000000,20.0000000000,,,
1.1328125000,18,17.0000000000,47.0000000000,20.0000000000,,,
1.1347656250,18,36.0000000000,47.0000000000,20.0000000000,,,
1.1367187500,18,34.0000000000,47.0000000000,20.0000000000,,,
1.1386718750,18,18.0000000000,47.0000000000,20.0000000000,,,
1.1406250000,18,24.0000000000,47.0000000000,20.0000000000,,,
1.1425781250,18,49.0000000000,47.0000000000,20.0000000000,,,
1.1445312500,18,53.0000000000,47.0000000000,20.0000000000,,,
1.1464843750,18,33.0000000000,47.0000000000,20.0000000000,,,
1.1484375000,18,25.0000000000,47.0000000000,20.0000000000,,,
1.1503906250,18,52.0000000000,47.0000000000,20.0000000000,,,
1.1523437500,18,68.0000000000,47.0000000000,20.0000000000,,,
1.1542968750,18,44.0000000000,47.0000000000,20.0000000000,,,
1.1562500000,18,21.0000000000,47.0000000000,20.0000000000,,,
1.1582031250,18,28.0000000000,47.0000000000,20.0000000000,,,
1.1601562500,18,33.0000000000,47.0000000000,20.0000000000,,,
1.1621093750,18,21.0000000000,47.0000000000,20.0000000000,,,
1.1640625000,18,12.0000000000,47.0000000000,20.0000000000,,,
1.1660156250,18,19.0000000000,47.0000000000,20.0000000000,,,
1.1679687500,18,34.0000000000,47.0000000000,20.0000000000,,,
1.1699218750,18,38.0000000000,47.0000000000,20.0000000000,,,
1.1718750000,18,35.0000000000,47.0000000000,20.0000000000,,,
1.1738281250,18,34.0000000000,47.0000000000,20.0000000000,,,
1.1757812500,18,25.0000000000,47.0000000000,20.0000000000,,,
1.1777343750,18,11.0000000000,47.0000000000,20.0000000000,,,
1.1796875000,18,0.0000000000,47.0000000000,20.0000000000,,,
1.1816406250,18,2.0000000000,47.0000000000,20.0000000000,,,
1.1835937500,18,17.0000000000,47.0000000000,20.0000000000,,,
1.1855468750,18,28.0000000000,47.0000000000,20.0000000000,,,
1.1875000000,19,23.0000000000,47.0000000000,20.0000000000,,,
1.1894531250,19,12.0000000000,47.0000000000,20.0000000000,,,
1.1914062500,19,22.0000000000,47.0000000000,20.0000000000,,,
1.1933593750,19,37.0000000000,47.0000000000,20.0000000000,,,
1.1953125000,19,36.0000000000,47.0000000000,20.0000000000,,,
1.1972656250,19,22.0000000000,47.0000000000,20.0000000000,,,
1.1992187500,19,17.0000000000,47.0000000000,20.0000000000,,,
1.2011718750,19,28.0000000000,47.0000000000,20.0000000000,,,
1.2031250000,19,42.0000000000,47.0000000000,20.0000000000,,,
1.2050781250,19,40.0000000000,47.0000000000,20.0000000000,,,
1.2070312500,19,28.0000000000,47.0000000000,20.0000000000,,,
1.2089843750,19,23.0000000000,47.0000000000,20.0000000000,,,
1.2109375000,19,21.0000000000,47.0000000000,20.0000000000,,,
1.2128906250,19,27.0000000000,47.0000000000,20.0000000000,,,
1.2148437500,19,50.0000000000,47.0000000000,20.0000000000,,,
1.2167968750,19,71.0000000000,47.0000000000,20.0000000000,,,
1.2187500000,19,70.0000000000,47.0000000000,20.0000000000,,,
1.2207031250,19,49.0000000000,47.0000000000,20.0000000000,,,
1.2226562500,19,23.0000000000,47.0000000000,20.0000000000,,,
1.2246093750,19,32.0000000000,47.0000000000,20.0000000000,,,
1.2265625000,19,42.0000000000,47.0000000000,20.0000000000,,,
1.2285156250,19,25.0000000000,47.0000000000,20.0000000000,,,
1.2304687500,19,9.0000000000,47.0000000000,20.0000000000,,,
1.2324218750,19,35.0000000000,47.0000000000,20.0000000000,,,
1.2343750000,19,75.0000000000,47.0000000000,20.0000000000,,,
1.2363281250,19,86.0000000000,47.0000000000,20.0000000000,,,
1.2382812500,19,69.0000000000,47.0000000000,20.0000000000,,,
1.2402343750,19,59.0000000000,47.0000000000,20.0000000000,,,
1.2421875000,19,74.0000000000,47.0000000000,20.0000000000,,,
1.2441406250,19,83.0000000000,47.0000000000,20.0000000000,,,
1.2460937500,19,52.0000000000,47.0000000000,20.0000000000,,,
1.2480468750,19,27.0000000000,47.0000000000,20.0000000000,,,
1.2500000000,20,43.0000000000,47.0000000000,20.0000000000,,,
1.2519531250,20,76.0000000000,47.0000000000,20.0000000000,,,
1.2539062500,20,97.0000000000,47.0000000000,20.0000000000,,,
1.2558593750,20,85.0000000000,47.0000000000,20.0000000000,,,
1.2578125000,20,83.0000000000,47.0000000000,20.0000000000,,,
1.2597656250,20,84.0000000000,47.0000000000,20.0000000000,,,
1.2617187500,20,67.0000000000,47.0000000000,20.0000000000,,,
1.2636718750,20,50.0000000000,47.0000000000,20.0000000000,,,
1.2656250000,20,52.0000000000,47.0000000000,20.0000000000,,,
1.2675781250,20,75.0000000000,47.0000000000,20.0000000000,,,
1.2695312500,20,87.0000000000,47.0000000000,20.0000000000,,,
1.2714843750,20,68.0000000000,47.0000000000,20.0000000000,,,
1.2734375000,20,51.0000000000,47.0000000000,20.0000000000,,,
1.2753906250,20,66.0000000000,47.0000000000,20.0000000000,,,
1.2773437500,20,76.0000000000,47.0000000000,20.0000000000,,,
1.2792968750,20,73.0000000000,47.0000000000,20.0000000000,,,
1.2812500000,20,59.0000000000,47.0000000000,20.0000000000,,,
1.2832031250,20,55.0000000000,47.0000000000,20.0000000000,,,
1.2851562500,20,64.0000000000,47.0000000000,20.0000000000,,,
1.2871093750,20,64.0000000000,47.0000000000,20.0000000000,,,
1.2890625000,20,55.0000000000,47.0000000000,20.0000000000,,,
1.2910156250,20,43.0000000000,47.0000000000,20.0000000000,,,
1.2929687500,20,35.0000000000,47.0000000000,20.0000000000,,,
1.2949218750,20,32.0000000000,47.0000000000,20.0000000000,,,
1.2968750000,20,34.0000000000,47.0000000000,20.0000000000,,,
1.2988281250,20,45.0000000000,47.0000000000,20.0000000000,,,
1.3007812500,20,59.0000000000,47.0000000000,20.0000000000,,,
1.3027343750,20,73.0000000000,47.0000000000,20.0000000000,,,
1.3046875000,20,74.0000000000,47.0000000000,20.0000000000,,,
1.3066406250,20,75.0000000000,47.0000000000,20.0000000000,,,
1.3085937500,20,87.0000000000,47.0000000000,20.0000000000,,,
1.3105468750,20,89.0000000000,47.0000000000,20.0000000000,,,
1.3125000000,21,76.0000000000,47.0000000000,20.0000000000,,,
1.3144531250,21,61.0000000000,47.0000000000,20.0000000000,,,
1.3164062500,21,61.0000000000,47.0000000000,20.0000000000,,,
1.3183593750,21,88.0000000000,47.0000000000,20.0000000000,,,
1.3203125000,21,106.0000000000,47.0000000000,20.0000000000,,,
1.3222656250,21,104.0000000000,47.0000000000,20.0000000000,,,
1.3242187500,21,99.0000000000,47.0000000000,20.0000000000,,,
1.3261718750,21,96.0000000000,47.0000000000,20.0000000000,,,
1.3281250000,21,87.0000000000,47.0000000000,20.0000000000,,,
1.3300781250,21,70.0000000000,47.0000000000,20.0000000000,,,
1.3320312500,21,50.0000000000,47.0000000000,20.0000000000,,,
1.3339843750,21,44.0000000000,47.0000000000,20.0000000000,,,
1.3359375000,21,49.0000000000,47.0000000000,20.0000000000,,,
1.3378906250,21,52.0000000000,47.0000000000,20.0000000000,,,
1.3398437500,21,59.0000000000,47.0000000000,20.0000000000,,,
1.3417968750,21,73.0000000000,47.0000000000,20.0000000000,,,
1.3437500000,21,75.0000000000,47.0000000000,20.0000000000,,,
1.3457031250,21,51.0000000000,47.0000000000,20.0000000000,,,
1.3476562500,21,10.0000000000,47.0000000000,20.0000000000,,,
1.3496093750,21,-11.0000000000,47.0000000000,20.0000000000,,,
1.3515625000,21,8.0000000000,47.0000000000,20.0000000000,,,
1.3535156250,21,45.0000000000,47.0000000000,20.0000000000,,,
1.3554687500,21,66.0000000000,47.0000000000,20.0000000000,,,
1.3574218750,21,67.0000000000,47.0000000000,20.0000000000,,,
1.3593750000,21,58.0000000000,47.0000000000,20.0000000000,,,
1.3613281250,21,50.0000000000,47.0000000000,20.0000000000,,,
1.3632812500,21,52.0000000000,47.0000000000,20.0000000000,,,
1.3652343750,21,71.0000000000,47.0000000000,20.0000000000,,,
1.3671875000,21,89.0000000000,47.0000000000,20.0000000000,,,
1.3691406250,21,91.0000000000,47.0000000000,20.0000000000,,,
1.3710937500,21,59.0000000000,47.0000000000,20.0000000000,,,
1.3730468750,21,23.0000000000,47.0000000000,20.0000000000,,,
1.3750000000,22,18.0000000000,47.0000000000,20.0000000000,,,
1.3769531250,22,37.0000000000,47.0000000000,20.0000000000,,,
1.3789062500,22,58.0000000000,47.0000000000,20.0000000000,,,
1.3808593750,22,71.0000000000,47.0000000000,20.0000000000,,,
1.3828125000,22,88.0000000000,47.0000000000,20.0000000000,,,
1.3847656250,22,112.0000000000,47.0000000000,20.0000000000,,,
1.3867187500,22,114.0000000000,47.0000000000,20.0000000000,,,
1.3886718750,22,97.0000000000,47.0000000000,20.0000000000,,,
1.3906250000,22,83.0000000000,47.0000000000,20.0000000000,,,
1.3925781250,22,77.0000000000,47.0000000000,20.0000000000,,,
1.3945312500,22,70.0000000000,47.0000000000,20.0000000000,,,
1.3964843750,22,50.0000000000,47.0000000000,20.0000000000,,,
1.3984375000,22,44.0000000000,47.0000000000,20.0000000000,,,
1.4003906250,22,65.0000000000,47.0000000000,20.0000000000,,,
1.4023437500,22,69.0000000000,47.0000000000,20.0000000000,,,
1.4042968750,22,65.0000000000,47.0000000000,20.0000000000,,,
1.4062500000,22,52.0000000000,47.0000000000,20.0000000000,,,
1.4082031250,22,49.0000000000,47.0000000000,20.0000000000,,,
1.4101562500,22,53.0000000000,47.0000000000,20.0000000000,,,
1.4121093750,22,44.0000000000,47.0000000000,20.0000000000,,,
1.4140625000,22,29.0000000000,47.0000000000,20.0000000000,,,
1.4160156250,22,33.0000000000,47.0000000000,20.0000000000,,,
1.4179687500,22,53.0000000000,47.0000000000,20.0000000000,,,
1.4199218750,22,67.0000000000,47.0000000000,20.0000000000,,,
1.4218750000,22,66.0000000000,47.0000000000,20.0000000000,,,
1.4238281250,22,53.0000000000,47.0000000000,20.0000000000,,,
1.4257812500,22,45.0000000000,47.0000000000,20.0000000000,,,
1.4277343750,22,50.0000000000,47.0000000000,20.0000000000,,,
1.4296875000,22,41.0000000000,47.0000000000,20.0000000000,,,
1.4316406250,22,34.0000000000,47.0000000000,20.0000000000,,,
1.4335937500,22,43.0000000000,47.0000000000,20.0000000000,,,
1.4355468750,22,68.0000000000,47.0000000000,20.0000000000,,,
1.4375000000,23,67.0000000000,47.0000000000,20.0000000000,,,
1.4394531250,23,48.0000000000,47.0000000000,20.0000000000,,,
1.4414062500,23,40.0000000000,47.0000000000,20.0000000000,,,
1.4433593750,23,52.0000000000,47.0000000000,20.0000000000,,,
1.4453125000,23,60.0000000000,47.0000000000,20.0000000000,,,
1.4472656250,23,50.0000000000,47.0000000000,20.0000000000,,,
1.4492187500,23,42.0000000000,47.0000000000,20.0000000000,,,
1.4511718750,23,60.0000000000,47.0000000000,20.0000000000,,,
1.4531250000,23,80.0000000000,47.0000000000,20.0000000000,,,
1.4550781250,23,85.0000000000,47.0000000000,20.0000000000,,,
1.4570312500,23,73.0000000000,47.0000000000,20.0000000000,,,
1.4589843750,23,51.0000000000,47.0000000000,20.0000000000,,,
1.4609375000,23,40.0000000000,47.0000000000,20.0000000000,,,
1.4628906250,23,37.0000000000,47.0000000000,20.0000000000,,,
1.4648437500,23,37.0000000000,47.0000000000,20.0000000000,,,
1.4667968750,23,39.0000000000,47.0000000000,20.0000000000,,,
1.4687500000,23,53.0000000000,47.0000000000,20.0000000000,,,
1.4707031250,23,61.0000000000,47.0000000000,20.0000000000,,,
1.4726562500,23,56.0000000000,47.0000000000,20.0000000000,,,
1.4746093750,23,45.0000000000,47.0000000000,20.0000000000,,,
1.4765625000,23,43.0000000000,47.0000000000,20.0000000000,,,
1.4785156250,23,43.0000000000,47.0000000000,20.0000000000,,,
1.4804687500,23,41.0000000000,47.0000000000,20.0000000000,,,
1.4824218750,23,44.0000000000,47.0000000000,20.0000000000,,,
1.4843750000,23,55.0000000000,47.0000000000,20.0000000000,,,
1.4863281250,23,60.0000000000,47.0000000000,20.0000000000,,,
1.4882812500,23,58.0000000000,47.0000000000,20.0000000000,,,
1.4902343750,23,49.0000000000,47.0000000000,20.0000000000,,,
1.4921875000,23,38.0000000000,47.0000000000,20.0000000000,,,
1.4941406250,23,23.0000000000,47.0000000000,20.0000000000,,,
1.4960937500,23,-1.0000000000,47.0000000000,20.0000000000,,,
1.4980468750,23,-13.0000000000,47.0000000000,20.0000000000,,,
1.5000000000,24,2.0000000000,47.0000000000,20.0000000000,,,
1.5019531250,24,27.0000000000,47.0000000000,20.0000000000,,,
1.5039062500,24,37.0000000000,47.0000000000,20.0000000000,,,
1.5058593750,24,18.0000000000,47.0000000000,20.0000000000,,,
1.5078125000,24,-1.0000000000,47.0000000000,20.0000000000,,,
1.5097656250,24,-1.0000000000,47.0000000000,20.0000000000,,,
1.5117187500,24,-4.0000000000,47.0000000000,20.0000000000,,,
1.5136718750,24,1.0000000000,47.0000000000,20.0000000000,,,
1.5156250000,24,29.0000000000,47.0000000000,20.0000000000,,,
1.5175781250,24,59.0000000000,47.0000000000,20.0000000000,,,
1.5195312500,24,58.0000000000,47.0000000000,20.0000000000,,,
1.5214843750,24,42.0000000000,47.0000000000,20.0000000000,,,
1.5234375000,24,16.0000000000,47.0000000000,20.0000000000,,,
1.5253906250,24,6.0000000000,47.0000000000,20.0000000000,,,
1.5273437500,24,25.0000000000,47.0000000000,20.0000000000,,,
1.5292968750,24,38.0000000000,47.0000000000,20.0000000000,,,
1.5312500000,24,41.0000000000,47.0000000000,20.0000000000,,,
1.5332031250,24,51.0000000000,47.0000000000,20.0000000000,,,
1.5351562500,24,68.0000000000,47.0000000000,20.0000000000,,,
1.5371093750,24,71.0000000000,47.0000000000,20.0000000000,,,
1.5390625000,24,68.0000000000,47.0000000000,20.0000000000,,,
1.5410156250,24,72.0000000000,47.0000000000,20.0000000000,,,
1.5429687500,24,77.0000000000,47.0000000000,20.0000000000,,,
1.5449218750,24,69.0000000000,47.0000000000,20.0000000000,,,
1.5468750000,24,33.0000000000,47.0000000000,20.0000000000,,,
1.5488281250,24,1.0000000000,47.0000000000,20.0000000000,,,
1.5507812500,24,10.0000000000,47.0000000000,20.0000000000,,,
1.5527343750,24,40.0000000000,47.0000000000,20.0000000000,,,
1.5546875000,24,41.0000000000,47.0000000000,20.0000000000,,,
1.5566406250,24,20.0000000000,47.0000000000,20.0000000000,,,
1.5585937500,24,10.0000000000,47.0000000000,20.0000000000,,,
1.5605468750,24,25.0000000000,47.0000000000,20.0000000000,,,
1.5625000000,25,32.0000000000,47.0000000000,20.0000000000,,,
1.5644531250,25,12.0000000000,47.0000000000,20.0000000000,,,
1.5664062500,25,-1.0000000000,47.0000000000,20.0000000000,,,
1.5683593750,25,17.0000000000,47.0000000000,20.0000000000,,,
1.5703125000,25,38.0000000000,47.0000000000,20.0000000000,,,
1.5722656250,25,32.0000000000,47.0000000000,20.0000000000,,,
1.5742187500,25,20.0000000000,47.0000000000,20.0000000000,,,
1.5761718750,25,28.0000000000,47.0000000000,20.0000000000,,,
1.5781250000,25,38.0000000000,47.0000000000,20.0000000000,,,
1.5800781250,25,32.0000000000,47.0000000000,20.0000000000,,,
1.5820312500,25,24.0000000000,47.0000000000,20.0000000000,,,
1.5839843750,25,40.0000000000,47.0000000000,20.0000000000,,,
1.5859375000,25,72.0000000000,47.0000000000,20.0000000000,,,
1.5878906250,25,88.0000000000,47.0000000000,20.0000000000,,,
1.5898437500,25,74.0000000000,47.0000000000,20.0000000000,,,
1.5917968750,25,64.0000000000,47.0000000000,20.0000000000,,,
1.5937500000,25,61.0000000000,47.0000000000,20.0000000000,,,
1.5957031250,25,49.0000000000,47.0000000000,20.0000000000,,,
1.5976562500,25,28.0000000000,47.0000000000,20.0000000000,,,
1.5996093750,25,24.0000000000,47.0000000000,20.0000000000,,,
1.6015625000,25,36.0000000000,47.0000000000,20.0000000000,,,
1.6035156250,25,39.0000000000,47.0000000000,20.0000000000,,,
1.6054687500,25,16.0000000000,47.0000000000,20.0000000000,,,
1.6074218750,25,-26.0000000000,47.0000000000,20.0000000000,,,
1.6093750000,25,-37.0000000000,47.0000000000,20.0000000000,,,
1.6113281250,25,-19.0000000000,47.0000000000,20.0000000000,,,
1.6132812500,25,2.0000000000,47.0000000000,20.0000000000,,,
1.6152343750,25,35.0000000000,47.0000000000,20.0000000000,,,
1.6171875000,25,73.0000000000,47.0000000000,20.0000000000,,,
1.6191406250,25,97.0000000000,47.0000000000,20.0000000000,,,
1.6210937500,25,100.0000000000,47.0000000000,20.0000000000,,,
1.6230468750,25,103.0000000000,47.0000000000,20.0000000000,,,
1.6250000000,26,107.0000000000,47.0000000000,20.0000000000,,,
1.6269531250,26,106.0000000000,47.0000000000,20.0000000000,,,
1.6289062500,26,89.0000000000,47.0000000000,20.0000000000,,,
1.6308593750,26,76.0000000000,47.0000000000,20.0000000000,,,
1.6328125000,26,73.0000000000,47.0000000000,20.0000000000,,,
1.6347656250,26,75.0000000000,47.0000000000,20.0000000000,,,
1.6367187500,26,85.0000000000,47.0000000000,20.0000000000,,,
1.6386718750,26,86.0000000000,47.0000000000,20.0000000000,,,
1.6406250000,26,75.0000000000,47.0000000000,20.0000000000,,,
1.6425781250,26,64.0000000000,47.0000000000,20.0000000000,,,
1.6445312500,26,51.0000000000,47.0000000000,20.0000000000,,,
1.6464843750,26,44.0000000000,47.0000000000,20.0000000000,,,
1.6484375000,26,42.0000000000,47.0000000000,20.0000000000,,,
1.6503906250,26,25.0000000000,47.0000000000,20.0000000000,,,
1.6523437500,26,26.0000000000,47.0000000000,20.0000000000,,,
1.6542968750,26,57.0000000000,47.0000000000,20.0000000000,,,
1.6562500000,26,76.0000000000,47.0000000000,20.0000000000,,,
1.6582031250,26,69.0000000000,47.0000000000,20.0000000000,,,
1.6601562500,26,64.0000000000,47.0000000000,20.0000000000,,,
1.6621093750,26,69.0000000000,47.0000000000,20.0000000000,,,
1.6640625000,26,67.0000000000,21.0000000000,23.0000000000,,,
1.6660156250,26,58.0000000000,21.0000000000,23.0000000000,,,
1.6679687500,26,57.0000000000,21.0000000000,23.0000000000,,,
1.6699218750,26,53.0000000000,21.0000000000,23.0000000000,,,
1.6718750000,26,24.0000000000,21.0000000000,23.0000000000,,,
1.6738281250,26,-7.0000000000,21.0000000000,23.0000000000,,,
1.6757812500,26,5.0000000000,21.0000000000,23.0000000000,,,
1.6777343750,26,40.0000000000,21.0000000000,23.0000000000,,,
1.6796875000,26,54.0000000000,21.0000000000,23.0000000000,,,
1.6816406250,26,49.0000000000,21.0000000000,23.0000000000,,,
1.6835937500,26,32.0000000000,21.0000000000,23.0000000000,,,
1.6855468750,26,26.0000000000,21.0000000000,23.0000000000,,,
1.6875000000,27,29.0000000000,21.0000000000,23.0000000000,,,
1.6894531250,27,26.0000000000,21.0000000000,23.0000000000,,,
1.6914062500,27,27.0000000000,21.0000000000,23.0000000000,,,
1.6933593750,27,32.0000000000,21.0000000000,23.0000000000,,,
1.6953125000,27,33.0000000000,21.0000000000,23.0000000000,,,
1.6972656250,27,21.0000000000,21.0000000000,23.0000000000,,,
1.6992187500,27,4.0000000000,21.0000000000,23.0000000000,,,
1.7011718750,27,8.0000000000,21.0000000000,23.0000000000,,,
1.7031250000,27,28.0000000000,21.0000000000,23.0000000000,,,
1.7050781250,27,40.0000000000,21.0000000000,23.0000000000,,,
1.7070312500,27,32.0000000000,21.0000000000,23.0000000000,,,
1.7089843750,27,16.0000000000,21.0000000000,23.0000000000,,,
1.7109375000,27,11.0000000000,21.0000000000,23.0000000000,,,
1.7128906250,27,29.0000000000,21.0000000000,23.0000000000,,,
1.7148437500,27,43.0000000000,21.0000000000,23.0000000000,,,
1.7167968750,27,42.0000000000,21.0000000000,23.0000000000,,,
1.7187500000,27,49.0000000000,21.0000000000,23.0000000000,,,
1.7207031250,27,58.0000000000,21.0000000000,23.0000000000,,,
1.7226562500,27,49.0000000000,21.0000000000,23.0000000000,,,
1.7246093750,27,25.0000000000,21.0000000000,23.0000000000,,,
1.7265625000,27,35.0000000000,21.0000000000,23.0000000000,,,
1.7285156250,27,49.0000000000,21.0000000000,23.0000000000,,,
1.7304687500,27,28.0000000000,21.0000000000,23.0000000000,,,
1.7324218750,27,10.0000000000,21.0000000000,23.0000000000,,,
1.7343750000,27,9.0000000000,21.0000000000,23.0000000000,,,
1.7363281250,27,25.0000000000,21.0000000000,23.0000000000,,,
1.7382812500,27,39.0000000000,21.0000000000,23.0000000000,,,
1.7402343750,27,40.0000000000,21.0000000000,23.0000000000,,,
1.7421875000,27,41.0000000000,21.0000000000,23.0000000000,,,
1.7441406250,27,41.0000000000,21.0000000000,23.0000000000,,,
1.7460937500,27,35.0000000000,21.0000000000,23.0000000000,,,
1.7480468750,27,26.0000000000,21.0000000000,23.0000000000,,,
1.7500000000,28,38.0000000000,21.0000000000,23.0000000000,,,
1.7519531250,28,66.0000000000,21.0000000000,23.0000000000,,,
1.7539062500,28,68.0000000000,21.0000000000,23.0000000000,,,
1.7558593750,28,44.0000000000,21.0000000000,23.0000000000,,,
1.7578125000,28,21.0000000000,21.0000000000,23.0000000000,,,
1.7597656250,28,16.0000000000,21.0000000000,23.0000000000,,,
1.7617187500,28,24.0000000000,21.0000000000,23.0000000000,,,
1.7636718750,28,28.0000000000,21.0000000000,23.0000000000,,,
1.7656250000,28,26.0000000000,21.0000000000,23.0000000000,,,
1.7675781250,28,24.0000000000,21.0000000000,23.0000000000,,,
1.7695312500,28,24.0000000000,21.0000000000,23.0000000000,,,
1.7714843750,28,19.0000000000,21.0000000000,23.0000000000,,,
1.7734375000,28,3.0000000000,21.0000000000,23.0000000000,,,
1.7753906250,28,-3.0000000000,21.0000000000,23.0000000000,,,
1.7773437500,28,18.0000000000,21.0000000000,23.0000000000,,,
1.7792968750,28,38.0000000000,21.0000000000,23.0000000000,,,
1.7812500000,28,39.0000000000,21.0000000000,23.0000000000,,,
1.7832031250,28,34.0000000000,21.0000000000,23.0000000000,,,
1.7851562500,28,35.0000000000,21.0000000000,23.0000000000,,,
1.7871093750,28,20.0000000000,21.0000000000,23.0000000000,,,
1.7890625000,28,-3.0000000000,21.0000000000,23.0000000000,,,
1.7910156250,28,-13.0000000000,21.0000000000,23.0000000000,,,
1.7929687500,28,2.0000000000,21.0000000000,23.0000000000,,,
1.7949218750,28,25.0000000000,21.0000000000,23.0000000000,,,
1.7968750000,28,34.0000000000,21.0000000000,23.0000000000,,,
1.7988281250,28,27.0000000000,21.0000000000,23.0000000000,,,
1.8007812500,28,36.0000000000,21.0000000000,23.0000000000,,,
1.8027343750,28,48.0000000000,21.0000000000,23.0000000000,,,
1.8046875000,28,40.0000000000,21.0000000000,23.0000000000,,,
1.8066406250,28,28.0000000000,21.0000000000,23.0000000000,,,
1.8085937500,28,27.0000000000,21.0000000000,23.0000000000,,,
1.8105468750,28,23.0000000000,21.0000000000,23.0000000000,,,
1.8125000000,29,9.0000000000,21.0000000000,23.0000000000,,,
1.8144531250,29,1.0000000000,21.0000000000,23.0000000000,,,
1.8164062500,29,4.0000000000,21.0000000000,23.0000000000,,,
1.8183593750,29,28.0000000000,21.0000000000,23.0000000000,,,
1.8203125000,29,58.0000000000,21.0000000000,23.0000000000,,,
1.8222656250,29,56.0000000000,21.0000000000,23.0000000000,,,
1.8242187500,29,27.0000000000,21.0000000000,23.0000000000,,,
1.8261718750,29,12.0000000000,21.0000000000,23.0000000000,,,
1.8281250000,29,18.0000000000,21.0000000000,23.0000000000,,,
1.8300781250,29,32.0000000000,21.0000000000,23.0000000000,,,
1.8320312500,29,35.0000000000,21.0000000000,23.0000000000,,,
1.8339843750,29,36.0000000000,21.0000000000,23.0000000000,,,
1.8359375000,29,51.0000000000,21.0000000000,23.0000000000,,,
1.8378906250,29,58.0000000000,21.0000000000,23.0000000000,,,
1.8398437500,29,45.0000000000,21.0000000000,23.0000000000,,,
1.8417968750,29,37.0000000000,21.0000000000,23.0000000000,,,
1.8437500000,29,44.0000000000,21.0000000000,23.0000000000,,,
1.8457031250,29,40.0000000000,21.0000000000,23.0000000000,,,
1.8476562500,29,24.0000000000,21.0000000000,23.0000000000,,,
1.8496093750,29,24.0000000000,21.0000000000,23.0000000000,,,
1.8515625000,29,42.0000000000,21.0000000000,23.0000000000,,,
1.8535156250,29,64.0000000000,21.0000000000,23.0000000000,,,
1.8554687500,29,70.0000000000,21.0000000000,23.0000000000,,,
1.8574218750,29,68.0000000000,21.0000000000,23.0000000000,,,
1.8593750000,29,75.0000000000,21.0000000000,23.0000000000,,,
1.8613281250,29,74.0000000000,21.0000000000,23.0000000000,,,
1.8632812500,29,52.0000000000,21.0000000000,23.0000000000,,,
1.8652343750,29,25.0000000000,21.0000000000,23.0000000000,,,
1.8671875000,29,17.0000000000,21.0000000000,23.0000000000,,,
1.8691406250,29,25.0000000000,21.0000000000,23.0000000000,,,
1.8710937500,29,43.0000000000,21.0000000000,23.0000000000,,,
1.8730468750,29,66.0000000000,21.0000000000,23.0000000000,,,
1.8750000000,30,70.0000000000,21.0000000000,23.0000000000,,,
1.8769531250,30,50.0000000000,21.0000000000,23.0000000000,,,
1.8789062500,30,12.0000000000,21.0000000000,23.0000000000,,,
1.8808593750,30,-11.0000000000,21.0000000000,23.0000000000,,,
1.8828125000,30,-11.0000000000,21.0000000000,23.0000000000,,,
1.8847656250,30,8.0000000000,21.0000000000,23.0000000000,,,
1.8867187500,30,32.0000000000,21.0000000000,23.0000000000,,,
1.8886718750,30,49.0000000000,21.0000000000,23.0000000000,,,
1.8906250000,30,44.0000000000,21.0000000000,23.0000000000,,,
1.8925781250,30,33.0000000000,21.0000000000,23.0000000000,,,
1.8945312500,30,37.0000000000,21.0000000000,23.0000000000,,,
1.8964843750,30,42.0000000000,21.0000000000,23.0000000000,,,
1.8984375000,30,33.0000000000,21.0000000000,23.0000000000,,,
1.9003906250,30,10.0000000000,21.0000000000,23.0000000000,,,
1.9023437500,30,4.0000000000,21.0000000000,23.0000000000,,,
1.9042968750,30,10.0000000000,21.0000000000,23.0000000000,,,
1.9062500000,30,5.0000000000,21.0000000000,23.0000000000,,,
1.9082031250,30,-8.0000000000,21.0000000000,23.0000000000,,,
1.9101562500,30,-10.0000000000,21.0000000000,23.0000000000,,,
1.9121093750,30,-6.0000000000,21.0000000000,23.0000000000,,,
1.9140625000,30,-5.0000000000,21.0000000000,23.0000000000,,,
1.9160156250,30,-10.0000000000,21.0000000000,23.0000000000,,,
1.9179687500,30,-9.0000000000,21.0000000000,23.0000000000,,,
1.9199218750,30,5.0000000000,21.0000000000,23.0000000000,,,
1.9218750000,30,6.0000000000,21.0000000000,23.0000000000,,,
1.9238281250,30,-4.0000000000,21.0000000000,23.0000000000,,,
1.9257812500,30,-9.0000000000,21.0000000000,23.0000000000,,,
1.9277343750,30,-2.0000000000,21.0000000000,23.0000000000,,,
1.9296875000,30,4.0000000000,21.0000000000,23.0000000000,,,
1.9316406250,30,7.0000000000,21.0000000000,23.0000000000,,,
1.9335937500,30,9.0000000000,21.0000000000,23.0000000000,,,
1.9355468750,30,19.0000000000,21.0000000000,23.0000000000,,,
1.9375000000,31,26.0000000000,21.0000000000,23.0000000000,,,
1.9394531250,31,9.0000000000,21.0000000000,23.0000000000,,,
1.9414062500,31,-5.0000000000,21.0000000000,23.0000000000,,,
1.9433593750,31,5.0000000000,21.0000000000,23.0000000000,,,
1.9453125000,31,24.0000000000,21.0000000000,23.0000000000,,,
1.9472656250,31,23.0000000000,21.0000000000,23.0000000000,,,
1.9492187500,31,11.0000000000,21.0000000000,23.0000000000,,,
1.9511718750,31,11.0000000000,21.0000000000,23.0000000000,,,
1.9531250000,31,28.0000000000,21.0000000000,23.0000000000,,,
1.9550781250,31,45.0000000000,21.0000000000,23.0000000000,,,
1.9570312500,31,40.0000000000,21.0000000000,23.0000000000,,,
1.9589843750,31,32.0000000000,21.0000000000,23.0000000000,,,
1.9609375000,31,42.0000000000,21.0000000000,23.0000000000,,,
1.9628906250,31,51.0000000000,21.0000000000,23.0000000000,,,
1.9648437500,31,33.0000000000,21.0000000000,23.0000000000,,,
1.9667968750,31,11.0000000000,21.0000000000,23.0000000000,,,
1.9687500000,31,11.0000000000,21.0000000000,23.0000000000,,,
1.9707031250,31,28.0000000000,21.0000000000,23.0000000000,,,
1.9726562500,31,23.0000000000,21.0000000000,23.0000000000,,,
1.9746093750,31,-3.0000000000,21.0000000000,23.0000000000,,,
1.9765625000,31,-20.0000000000,21.0000000000,23.0000000000,,,
1.9785156250,31,-13.0000000000,21.0000000000,23.0000000000,,,
1.9804687500,31,-18.0000000000,21.0000000000,23.0000000000,,,
1.9824218750,31,-28.0000000000,21.0000000000,23.0000000000,,,
1.9843750000,31,-13.0000000000,21.0000000000,23.0000000000,,,
1.9863281250,31,23.0000000000,21.0000000000,23.0000000000,,,
1.9882812500,31,38.0000000000,21.0000000000,23.0000000000,,,
1.9902343750,31,16.0000000000,21.0000000000,23.0000000000,,,
1.9921875000,31,-8.0000000000,21.0000000000,23.0000000000,,,
1.9941406250,31,-1.0000000000,21.0000000000,23.0000000000,,,
1.9960937500,31,9.0000000000,21.0000000000,23.0000000000,,,
1.9980468750,31,1.0000000000,21.0000000000,23.0000000000,,,
2.0000000000,32,-2.0000000000,21.0000000000,23.0000000000,,,
2.0019531250,32,26.0000000000,21.0000000000,23.0000000000,,,
2.0039062500,32,57.0000000000,21.0000000000,23.0000000000,,,
2.0058593750,32,53.0000000000,21.0000000000,23.0000000000,,,
2.0078125000,32,23.0000000000,21.0000000000,23.0000000000,,,
2.0097656250,32,8.0000000000,21.0000000000,23.0000000000,,,
2.0117187500,32,23.0000000000,21.0000000000,23.0000000000,,,
2.0136718750,32,36.0000000000,21.0000000000,23.0000000000,,,
2.0156250000,32,13.0000000000,21.0000000000,23.0000000000,,,
2.0175781250,32,-10.0000000000,21.0000000000,23.0000000000,,,
2.0195312500,32,-4.0000000000,21.0000000000,23.0000000000,,,
2.0214843750,32,25.0000000000,21.0000000000,23.0000000000,,,
2.0234375000,32,53.0000000000,21.0000000000,23.0000000000,,,
2.0253906250,32,57.0000000000,21.0000000000,23.0000000000,,,
2.0273437500,32,68.0000000000,21.0000000000,23.0000000000,,,
2.0292968750,32,70.0000000000,21.0000000000,23.0000000000,,,
2.0312500000,32,40.0000000000,21.0000000000,23.0000000000,,,
2.0332031250,32,5.0000000000,21.0000000000,23.0000000000,,,
2.0351562500,32,18.0000000000,21.0000000000,23.0000000000,,,
2.0371093750,32,57.0000000000,21.0000000000,23.0000000000,,,
2.0390625000,32,73.0000000000,21.0000000000,23.0000000000,,,
2.0410156250,32,54.0000000000,21.0000000000,23.0000000000,,,
2.0429687500,32,41.0000000000,21.0000000000,23.0000000000,,,
2.0449218750,32,58.0000000000,21.0000000000,23.0000000000,,,
2.0468750000,32,73.0000000000,21.0000000000,23.0000000000,,,
2.0488281250,32,58.0000000000,21.0000000000,23.0000000000,,,
2.0507812500,32,32.0000000000,21.0000000000,23.0000000000,,,
2.0527343750,32,25.0000000000,21.0000000000,23.0000000000,,,
2.0546875000,32,49.0000000000,21.0000000000,23.0000000000,,,
2.0566406250,32,74.0000000000,21.0000000000,23.0000000000,,,
2.0585937500,32,82.0000000000,21.0000000000,23.0000000000,,,
2.0605468750,32,77.0000000000,21.0000000000,23.0000000000,,,
2.0625000000,33,73.0000000000,21.0000000000,23.0000000000,,,
2.0644531250,33,56.0000000000,21.0000000000,23.0000000000,,,
2.0664062500,33,38.0000000000,21.0000000000,23.0000000000,,,
2.0683593750,33,41.0000000000,21.0000000000,23.0000000000,,,
2.0703125000,33,80.0000000000,21.0000000000,23.0000000000,,,
2.0722656250,33,106.0000000000,21.0000000000,23.0000000000,,,
2.0742187500,33,96.0000000000,21.0000000000,23.0000000000,,,
2.0761718750,33,68.0000000000,21.0000000000,23.0000000000,,,
2.0781250000,33,56.0000000000,21.0000000000,23.0000000000,,,
2.0800781250,33,56.0000000000,21.0000000000,23.0000000000,,,
2.0820312500,33,42.0000000000,21.0000000000,23.0000000000,,,
2.0839843750,33,24.0000000000,21.0000000000,23.0000000000,,,
2.0859375000,33,24.0000000000,21.0000000000,23.0000000000,,,
2.0878906250,33,49.0000000000,21.0000000000,23.0000000000,,,
2.0898437500,33,61.0000000000,21.0000000000,23.0000000000,,,
2.0917968750,33,56.0000000000,21.0000000000,23.0000000000,,,
2.0937500000,33,59.0000000000,21.0000000000,23.0000000000,,,
2.0957031250,33,72.0000000000,21.0000000000,23.0000000000,,,
2.0976562500,33,70.0000000000,21.0000000000,23.0000000000,,,
2.0996093750,33,45.0000000000,21.0000000000,23.0000000000,,,
2.1015625000,33,34.0000000000,21.0000000000,23.0000000000,,,
2.1035156250,33,42.0000000000,21.0000000000,23.0000000000,,,
2.1054687500,33,48.0000000000,21.0000000000,23.0000000000,,,
2.1074218750,33,50.0000000000,21.0000000000,23.0000000000,,,
2.1093750000,33,49.0000000000,21.0000000000,23.0000000000,,,
2.1113281250,33,54.0000000000,21.0000000000,23.0000000000,,,
2.1132812500,33,65.0000000000,21.0000000000,23.0000000000,,,
2.1152343750,33,65.0000000000,21.0000000000,23.0000000000,,,
2.1171875000,33,50.0000000000,21.0000000000,23.0000000000,,,
2.1191406250,33,43.0000000000,21.0000000000,23.0000000000,,,
2.1210937500,33,58.0000000000,21.0000000000,23.0000000000,,,
2.1230468750,33,56.0000000000,21.0000000000,23.0000000000,,,
2.1250000000,34,38.0000000000,21.0000000000,23.0000000000,,,
2.1269531250,34,26.0000000000,21.0000000000,23.0000000000,,,
2.1289062500,34,36.0000000000,21.0000000000,23.0000000000,,,
2.1308593750,34,48.0000000000,21.0000000000,23.0000000000,,,
2.1328125000,34,42.0000000000,21.0000000000,23.0000000000,,,
2.1347656250,34,49.0000000000,21.0000000000,23.0000000000,,,
2.1367187500,34,83.0000000000,21.0000000000,23.0000000000,,,
2.1386718750,34,102.0000000000,21.0000000000,23.0000000000,,,
2.1406250000,34,86.0000000000,21.0000000000,23.0000000000,,,
2.1425781250,34,66.0000000000,21.0000000000,23.0000000000,,,
2.1445312500,34,70.0000000000,21.0000000000,23.0000000000,,,
2.1464843750,34,75.0000000000,21.0000000000,23.0000000000,,,
2.1484375000,34,67.0000000000,21.0000000000,23.0000000000,,,
2.1503906250,34,66.0000000000,21.0000000000,23.0000000000,,,
2.1523437500,34,84.0000000000,21.0000000000,23.0000000000,,,
2.1542968750,34,96.0000000000,21.0000000000,23.0000000000,,,
2.1562500000,34,76.0000000000,21.0000000000,23.0000000000,,,
2.1582031250,34,52.0000000000,21.0000000000,23.0000000000,,,
2.1601562500,34,37.0000000000,21.0000000000,23.0000000000,,,
2.1621093750,34,37.0000000000,21.0000000000,23.0000000000,,,
2.1640625000,34,25.0000000000,21.0000000000,23.0000000000,,,
2.1660156250,34,-6.0000000000,21.0000000000,23.0000000000,,,
2.1679687500,34,-29.0000000000,21.0000000000,23.0000000000,,,
2.1699218750,34,-13.0000000000,21.0000000000,23.0000000000,,,
2.1718750000,34,35.0000000000,21.0000000000,23.0000000000,,,
2.1738281250,34,85.0000000000,21.0000000000,23.0000000000,,,
2.1757812500,34,86.0000000000,21.0000000000,23.0000000000,,,
2.1777343750,34,59.0000000000,21.0000000000,23.0000000000,,,
2.1796875000,34,50.0000000000,21.0000000000,23.0000000000,,,
2.1816406250,34,59.0000000000,21.0000000000,23.0000000000,,,
2.1835937500,34,72.0000000000,21.0000000000,23.0000000000,,,
2.1855468750,34,76.0000000000,21.0000000000,23.0000000000,,,
2.1875000000,35,72.0000000000,21.0000000000,23.0000000000,,,
2.1894531250,35,42.0000000000,21.0000000000,23.0000000000,,,
2.1914062500,35,12.0000000000,21.0000000000,23.0000000000,,,
2.1933593750,35,-2.0000000000,21.0000000000,23.0000000000,,,
2.1953125000,35,-5.0000000000,21.0000000000,23.0000000000,,,
2.1972656250,35,0.0000000000,21.0000000000,23.0000000000,,,
2.1992187500,35,7.0000000000,21.0000000000,23.0000000000,,,
2.2011718750,35,22.0000000000,21.0000000000,23.0000000000,,,
2.2031250000,35,34.0000000000,21.0000000000,23.0000000000,,,
2.2050781250,35,39.0000000000,21.0000000000,23.0000000000,,,
2.2070312500,35,34.0000000000,21.0000000000,23.0000000000,,,
2.2089843750,35,16.0000000000,21.0000000000,23.0000000000,,,
2.2109375000,35,18.0000000000,21.0000000000,23.0000000000,,,
2.2128906250,35,29.0000000000,21.0000000000,23.0000000000,,,
2.2148437500,35,24.0000000000,21.0000000000,23.0000000000,,,
2.2167968750,35,8.0000000000,21.0000000000,23.0000000000,,,
2.2187500000,35,4.0000000000,21.0000000000,23.0000000000,,,
2.2207031250,35,10.0000000000,21.0000000000,23.0000000000,,,
2.2226562500,35,6.0000000000,21.0000000000,23.0000000000,,,
2.2246093750,35,-8.0000000000,21.0000000000,23.0000000000,,,
2.2265625000,35,-19.0000000000,21.0000000000,23.0000000000,,,
2.2285156250,35,-13.0000000000,21.0000000000,23.0000000000,,,
2.2304687500,35,-12.0000000000,21.0000000000,23.0000000000,,,
2.2324218750,35,-29.0000000000,21.0000000000,23.0000000000,,,
2.2343750000,35,-36.0000000000,21.0000000000,23.0000000000,,,
2.2363281250,35,-5.0000000000,21.0000000000,23.0000000000,,,
2.2382812500,35,34.0000000000,21.0000000000,23.0000000000,,,
2.2402343750,35,48.0000000000,21.0000000000,23.0000000000,,,
2.2421875000,35,36.0000000000,21.0000000000,23.0000000000,,,
2.2441406250,35,33.0000000000,21.0000000000,23.0000000000,,,
2.2460937500,35,40.0000000000,21.0000000000,23.0000000000,,,
2.2480468750,35,37.0000000000,21.0000000000,23.0000000000,,,
2.2500000000,36,26.0000000000,21.0000000000,23.0000000000,,,
2.2519531250,36,20.0000000000,21.0000000000,23.0000000000,,,
2.2539062500,36,33.0000000000,21.0000000000,23.0000000000,,,
2.2558593750,36,42.0000000000,21.0000000000,23.0000000000,,,
2.2578125000,36,32.0000000000,21.0000000000,23.0000000000,,,
2.2597656250,36,19.0000000000,21.0000000000,23.0000000000,,,
2.2617187500,36,40.0000000000,21.0000000000,23.0000000000,,,
2.2636718750,36,59.0000000000,21.0000000000,23.0000000000,,,
2.2656250000,36,48.0000000000,21.0000000000,23.0000000000,,,
2.2675781250,36,23.0000000000,21.0000000000,23.0000000000,,,
2.2695312500,36,22.0000000000,21.0000000000,23.0000000000,,,
2.2714843750,36,25.0000000000,21.0000000000,23.0000000000,,,
2.2734375000,36,13.0000000000,21.0000000000,23.0000000000,,,
2.2753906250,36,-4.0000000000,21.0000000000,23.0000000000,,,
2.2773437500,36,-5.0000000000,21.0000000000,23.0000000000,,,
2.2792968750,36,19.0000000000,21.0000000000,23.0000000000,,,
2.2812500000,36,27.0000000000,21.0000000000,23.0000000000,,,
2.2832031250,36,22.0000000000,21.0000000000,23.0000000000,,,
2.2851562500,36,18.0000000000,21.0000000000,23.0000000000,,,
2.2871093750,36,32.0000000000,21.0000000000,23.0000000000,,,
2.2890625000,36,43.0000000000,21.0000000000,23.0000000000,,,
2.2910156250,36,44.0000000000,21.0000000000,23.0000000000,,,
2.2929687500,36,42.0000000000,21.0000000000,23.0000000000,,,
2.2949218750,36,48.0000000000,21.0000000000,23.0000000000,,,
2.2968750000,36,42.0000000000,21.0000000000,23.0000000000,,,
2.2988281250,36,32.0000000000,21.0000000000,23.0000000000,,,
2.3007812500,36,23.0000000000,21.0000000000,23.0000000000,,,
2.3027343750,36,23.0000000000,21.0000000000,23.0000000000,,,
2.3046875000,36,35.0000000000,21.0000000000,23.0000000000,,,
2.3066406250,36,39.0000000000,21.0000000000,23.0000000000,,,
2.3085937500,36,37.0000000000,21.0000000000,23.0000000000,,,
2.3105468750,36,38.0000000000,21.0000000000,23.0000000000,,,
2.3125000000,37,37.0000000000,21.0000000000,23.0000000000,,,
2.3144531250,37,22.0000000000,21.0000000000,23.0000000000,,,
2.3164062500,37,4.0000000000,21.0000000000,23.0000000000,,,
2.3183593750,37,6.0000000000,21.0000000000,23.0000000000,,,
2.3203125000,37,28.0000000000,21.0000000000,23.0000000000,,,
2.3222656250,37,55.0000000000,21.0000000000,23.0000000000,,,
2.3242187500,37,58.0000000000,21.0000000000,23.0000000000,,,
2.3261718750,37,54.0000000000,21.0000000000,23.0000000000,,,
2.3281250000,37,68.0000000000,21.0000000000,23.0000000000,,,
2.3300781250,37,80.0000000000,21.0000000000,23.0000000000,,,
2.3320312500,37,71.0000000000,21.0000000000,23.0000000000,,,
2.3339843750,37,57.0000000000,21.0000000000,23.0000000000,,,
2.3359375000,37,68.0000000000,21.0000000000,23.0000000000,,,
2.3378906250,37,96.0000000000,21.0000000000,23.0000000000,,,
2.3398437500,37,98.0000000000,21.0000000000,23.0000000000,,,
2.3417968750,37,66.0000000000,21.0000000000,23.0000000000,,,
2.3437500000,37,43.0000000000,21.0000000000,23.0000000000,,,
2.3457031250,37,53.0000000000,21.0000000000,23.0000000000,,,
2.3476562500,37,66.0000000000,21.0000000000,23.0000000000,,,
2.3496093750,37,67.0000000000,21.0000000000,23.0000000000,,,
2.3515625000,37,66.0000000000,21.0000000000,23.0000000000,,,
2.3535156250,37,68.0000000000,21.0000000000,23.0000000000,,,
2.3554687500,37,77.0000000000,21.0000000000,23.0000000000,,,
2.3574218750,37,75.0000000000,21.0000000000,23.0000000000,,,
2.3593750000,37,66.0000000000,21.0000000000,23.0000000000,,,
2.3613281250,37,60.0000000000,21.0000000000,23.0000000000,,,
2.3632812500,37,50.0000000000,21.0000000000,23.0000000000,,,
2.3652343750,37,27.0000000000,21.0000000000,23.0000000000,,,
2.3671875000,37,20.0000000000,21.0000000000,23.0000000000,,,
2.3691406250,37,39.0000000000,21.0000000000,23.0000000000,,,
2.3710937500,37,75.0000000000,21.0000000000,23.0000000000,,,
2.3730468750,37,92.0000000000,21.0000000000,23.0000000000,,,
2.3750000000,38,74.0000000000,21.0000000000,23.0000000000,,,
2.3769531250,38,56.0000000000,21.0000000000,23.0000000000,,,
2.3789062500,38,60.0000000000,21.0000000000,23.0000000000,,,
2.3808593750,38,66.0000000000,21.0000000000,23.0000000000,,,
2.3828125000,38,59.0000000000,21.0000000000,23.0000000000,,,
2.3847656250,38,53.0000000000,21.0000000000,23.0000000000,,,
2.3867187500,38,48.0000000000,21.0000000000,23.0000000000,,,
2.3886718750,38,55.0000000000,21.0000000000,23.0000000000,,,
2.3906250000,38,70.0000000000,21.0000000000,23.0000000000,,,
2.3925781250,38,56.0000000000,21.0000000000,23.0000000000,,,
2.3945312500,38,21.0000000000,21.0000000000,23.0000000000,,,
2.3964843750,38,9.0000000000,21.0000000000,23.0000000000,,,
2.3984375000,38,18.0000000000,21.0000000000,23.0000000000,,,
2.4003906250,38,27.0000000000,21.0000000000,23.0000000000,,,
2.4023437500,38,37.0000000000,21.0000000000,23.0000000000,,,
2.4042968750,38,28.0000000000,21.0000000000,23.0000000000,,,
2.4062500000,38,25.0000000000,21.0000000000,23.0000000000,,,
2.4082031250,38,36.0000000000,21.0000000000,23.0000000000,,,
2.4101562500,38,51.0000000000,21.0000000000,23.0000000000,,,
2.4121093750,38,70.0000000000,21.0000000000,23.0000000000,,,
2.4140625000,38,85.0000000000,21.0000000000,23.0000000000,,,
2.4160156250,38,82.0000000000,21.0000000000,23.0000000000,,,
2.4179687500,38,64.0000000000,21.0000000000,23.0000000000,,,
2.4199218750,38,51.0000000000,21.0000000000,23.0000000000,,,
2.4218750000,38,52.0000000000,21.0000000000,23.0000000000,,,
2.4238281250,38,49.0000000000,21.0000000000,23.0000000000,,,
2.4257812500,38,26.0000000000,21.0000000000,23.0000000000,,,
2.4277343750,38,-5.0000000000,21.0000000000,23.0000000000,,,
2.4296875000,38,-23.0000000000,21.0000000000,23.0000000000,,,
2.4316406250,38,-9.0000000000,21.0000000000,23.0000000000,,,
2.4335937500,38,19.0000000000,21.0000000000,23.0000000000,,,
2.4355468750,38,34.0000000000,21.0000000000,23.0000000000,,,
2.4375000000,39,33.0000000000,21.0000000000,23.0000000000,,,
2.4394531250,39,23.0000000000,21.0000000000,23.0000000000,,,
2.4414062500,39,6.0000000000,21.0000000000,23.0000000000,,,
2.4433593750,39,1.0000000000,21.0000000000,23.0000000000,,,
2.4453125000,39,17.0000000000,21.0000000000,23.0000000000,,,
2.4472656250,39,25.0000000000,21.0000000000,23.0000000000,,,
2.4492187500,39,18.0000000000,21.0000000000,23.0000000000,,,
2.4511718750,39,0.0000000000,21.0000000000,23.0000000000,,,
2.4531250000,39,-12.0000000000,21.0000000000,23.0000000000,,,
2.4550781250,39,-13.0000000000,21.0000000000,23.0000000000,,,
2.4570312500,39,-26.0000000000,21.0000000000,23.0000000000,,,
2.4589843750,39,-42.0000000000,21.0000000000,23.0000000000,,,
2.4609375000,39,-44.0000000000,21.0000000000,23.0000000000,,,
2.4628906250,39,-45.0000000000,21.0000000000,23.0000000000,,,
2.4648437500,39,-44.0000000000,21.0000000000,23.0000000000,,,
2.4667968750,39,-44.0000000000,21.0000000000,23.0000000000,,,
2.4687500000,39,-41.0000000000,21.0000000000,23.0000000000,,,
2.4707031250,39,-8.0000000000,21.0000000000,23.0000000000,,,
2.4726562500,39,29.0000000000,21.0000000000,23.0000000000,,,
2.4746093750,39,26.0000000000,21.0000000000,23.0000000000,,,
2.4765625000,39,-12.0000000000,21.0000000000,23.0000000000,,,
2.4785156250,39,-40.0000000000,21.0000000000,23.0000000000,,,
2.4804687500,39,-26.0000000000,21.0000000000,23.0000000000,,,
2.4824218750,39,-4.0000000000,21.0000000000,23.0000000000,,,
2.4843750000,39,-5.0000000000,21.0000000000,23.0000000000,,,
2.4863281250,39,-8.0000000000,21.0000000000,23.0000000000,,,
2.4882812500,39,6.0000000000,21.0000000000,23.0000000000,,,
2.4902343750,39,18.0000000000,21.0000000000,23.0000000000,,,
2.4921875000,39,19.0000000000,21.0000000000,23.0000000000,,,
2.4941406250,39,32.0000000000,21.0000000000,23.0000000000,,,
2.4960937500,39,50.0000000000,21.0000000000,23.0000000000,,,
2.4980468750,39,48.0000000000,21.0000000000,23.0000000000,,,
2.5000000000,40,20.0000000000,21.0000000000,23.0000000000,,,
2.5019531250,40,-5.0000000000,21.0000000000,23.0000000000,,,
2.5039062500,40,3.0000000000,21.0000000000,23.0000000000,,,
2.5058593750,40,22.0000000000,21.0000000000,23.0000000000,,,
2.5078125000,40,25.0000000000,21.0000000000,23.0000000000,,,
2.5097656250,40,23.0000000000,21.0000000000,23.0000000000,,,
2.5117187500,40,21.0000000000,21.0000000000,23.0000000000,,,
2.5136718750,40,20.0000000000,21.0000000000,23.0000000000,,,
2.5156250000,40,25.0000000000,21.0000000000,23.0000000000,,,
2.5175781250,40,41.0000000000,21.0000000000,23.0000000000,,,
2.5195312500,40,60.0000000000,21.0000000000,23.0000000000,,,
2.5214843750,40,69.0000000000,21.0000000000,23.0000000000,,,
2.5234375000,40,59.0000000000,21.0000000000,23.0000000000,,,
2.5253906250,40,38.0000000000,21.0000000000,23.0000000000,,,
2.5273437500,40,12.0000000000,21.0000000000,23.0000000000,,,
2.5292968750,40,-5.0000000000,21.0000000000,23.0000000000,,,
2.5312500000,40,0.0000000000,21.0000000000,23.0000000000,,,
2.5332031250,40,13.0000000000,21.0000000000,23.0000000000,,,
2.5351562500,40,23.0000000000,21.0000000000,23.0000000000,,,
2.5371093750,40,38.0000000000,21.0000000000,23.0000000000,,,
2.5390625000,40,67.0000000000,21.0000000000,23.0000000000,,,
2.5410156250,40,88.0000000000,21.0000000000,23.0000000000,,,
2.5429687500,40,84.0000000000,21.0000000000,23.0000000000,,,
2.5449218750,40,84.0000000000,21.0000000000,23.0000000000,,,
2.5468750000,40,97.0000000000,21.0000000000,23.0000000000,,,
2.5488281250,40,85.0000000000,21.0000000000,23.0000000000,,,
2.5507812500,40,51.0000000000,21.0000000000,23.0000000000,,,
2.5527343750,40,26.0000000000,21.0000000000,23.0000000000,,,
2.5546875000,40,19.0000000000,21.0000000000,23.0000000000,,,
2.5566406250,40,38.0000000000,21.0000000000,23.0000000000,,,
2.5585937500,40,59.0000000000,21.0000000000,23.0000000000,,,
2.5605468750,40,48.0000000000,21.0000000000,23.0000000000,,,
2.5625000000,41,17.0000000000,21.0000000000,23.0000000000,,,
2.5644531250,41,-6.0000000000,21.0000000000,23.0000000000,,,
2.5664062500,41,-17.0000000000,21.0000000000,23.0000000000,,,
2.5683593750,41,-6.0000000000,21.0000000000,23.0000000000,,,
2.5703125000,41,21.0000000000,21.0000000000,23.0000000000,,,
2.5722656250,41,54.0000000000,21.0000000000,23.0000000000,,,
2.5742187500,41,66.0000000000,21.0000000000,23.0000000000,,,
2.5761718750,41,53.0000000000,21.0000000000,23.0000000000,,,
2.5781250000,41,41.0000000000,21.0000000000,23.0000000000,,,
2.5800781250,41,48.0000000000,21.0000000000,23.0000000000,,,
2.5820312500,41,43.0000000000,21.0000000000,23.0000000000,,,
2.5839843750,41,20.0000000000,21.0000000000,23.0000000000,,,
2.5859375000,41,-3.0000000000,21.0000000000,23.0000000000,,,
2.5878906250,41,-1.0000000000,21.0000000000,23.0000000000,,,
2.5898437500,41,7.0000000000,21.0000000000,23.0000000000,,,
2.5917968750,41,7.0000000000,21.0000000000,23.0000000000,,,
2.5937500000,41,-5.0000000000,21.0000000000,23.0000000000,,,
2.5957031250,41,-24.0000000000,21.0000000000,23.0000000000,,,
2.5976562500,41,-37.0000000000,21.0000000000,23.0000000000,,,
2.5996093750,41,-46.0000000000,21.0000000000,23.0000000000,,,
2.6015625000,41,-51.0000000000,21.0000000000,23.0000000000,,,
2.6035156250,41,-42.0000000000,21.0000000000,23.0000000000,,,
2.6054687500,41,-24.0000000000,21.0000000000,23.0000000000,,,
2.6074218750,41,-18.0000000000,21.0000000000,23.0000000000,,,
2.6093750000,41,-25.0000000000,21.0000000000,23.0000000000,,,
2.6113281250,41,-37.0000000000,21.0000000000,23.0000000000,,,
2.6132812500,41,-30.0000000000,21.0000000000,23.0000000000,,,
2.6152343750,41,-24.0000000000,21.0000000000,23.0000000000,,,
2.6171875000,41,-34.0000000000,21.0000000000,23.0000000000,,,
2.6191406250,41,-35.0000000000,21.0000000000,23.0000000000,,,
2.6210937500,41,-26.0000000000,21.0000000000,23.0000000000,,,
2.6230468750,41,-30.0000000000,21.0000000000,23.0000000000,,,
2.6250000000,42,-35.0000000000,21.0000000000,23.0000000000,,,
2.6269531250,42,-21.0000000000,21.0000000000,23.0000000000,,,
2.6289062500,42,9.0000000000,21.0000000000,23.0000000000,,,
2.6308593750,42,32.0000000000,21.0000000000,23.0000000000,,,
2.6328125000,42,22.0000000000,21.0000000000,23.0000000000,,,
2.6347656250,42,10.0000000000,21.0000000000,23.0000000000,,,
2.6367187500,42,22.0000000000,21.0000000000,23.0000000000,,,
2.6386718750,42,35.0000000000,21.0000000000,23.0000000000,,,
2.6406250000,42,25.0000000000,21.0000000000,23.0000000000,,,
2.6425781250,42,7.0000000000,21.0000000000,23.0000000000,,,
2.6445312500,42,1.0000000000,21.0000000000,23.0000000000,,,
2.6464843750,42,7.0000000000,21.0000000000,23.0000000000,,,
2.6484375000,42,12.0000000000,21.0000000000,23.0000000000,,,
2.6503906250,42,7.0000000000,21.0000000000,23.0000000000,,,
2.6523437500,42,-5.0000000000,21.0000000000,23.0000000000,,,
2.6542968750,42,4.0000000000,21.0000000000,23.0000000000,,,
2.6562500000,42,32.0000000000,21.0000000000,23.0000000000,,,
2.6582031250,42,43.0000000000,21.0000000000,23.0000000000,,,
2.6601562500,42,33.0000000000,21.0000000000,23.0000000000,,,
2.6621093750,42,27.0000000000,21.0000000000,23.0000000000,,,
2.6640625000,42,39.0000000000,26.0000000000,41.0000000000,,,
2.6660156250,42,37.0000000000,26.0000000000,41.0000000000,,,
2.6679687500,42,25.0000000000,26.0000000000,41.0000000000,,,
2.6699218750,42,33.0000000000,26.0000000000,41.0000000000,,,
2.6718750000,42,45.0000000000,26.0000000000,41.0000000000,,,
2.6738281250,42,53.0000000000,26.0000000000,41.0000000000,,,
2.6757812500,42,49.0000000000,26.0000000000,41.0000000000,,,
2.6777343750,42,33.0000000000,26.0000000000,41.0000000000,,,
2.6796875000,42,26.0000000000,26.0000000000,41.0000000000,,,
2.6816406250,42,37.0000000000,26.0000000000,41.0000000000,,,
2.6835937500,42,51.0000000000,26.0000000000,41.0000000000,,,
2.6855468750,42,52.0000000000,26.0000000000,41.0000000000,,,
2.6875000000,43,56.0000000000,26.0000000000,41.0000000000,,,
2.6894531250,43,81.0000000000,26.0000000000,41.0000000000,,,
2.6914062500,43,88.0000000000,26.0000000000,41.0000000000,,,
2.6933593750,43,71.0000000000,26.0000000000,41.0000000000,,,
2.6953125000,43,58.0000000000,26.0000000000,41.0000000000,,,
2.6972656250,43,61.0000000000,26.0000000000,41.0000000000,,,
2.6992187500,43,57.0000000000,26.0000000000,41.0000000000,,,
2.7011718750,43,52.0000000000,26.0000000000,41.0000000000,,,
2.7031250000,43,54.0000000000,26.0000000000,41.0000000000,,,
2.7050781250,43,65.0000000000,26.0000000000,41.0000000000,,,
2.7070312500,43,76.0000000000,26.0000000000,41.0000000000,,,
2.7089843750,43,91.0000000000,26.0000000000,41.0000000000,,,
2.7109375000,43,88.0000000000,26.0000000000,41.0000000000,,,
2.7128906250,43,56.0000000000,26.0000000000,41.0000000000,,,
2.7148437500,43,43.0000000000,26.0000000000,41.0000000000,,,
2.7167968750,43,70.0000000000,26.0000000000,41.0000000000,,,
2.7187500000,43,93.0000000000,26.0000000000,41.0000000000,,,
2.7207031250,43,103.0000000000,26.0000000000,41.0000000000,,,
2.7226562500,43,89.0000000000,26.0000000000,41.0000000000,,,
2.7246093750,43,67.0000000000,26.0000000000,41.0000000000,,,
2.7265625000,43,56.0000000000,26.0000000000,41.0000000000,,,
2.7285156250,43,69.0000000000,26.0000000000,41.0000000000,,,
2.7304687500,43,91.0000000000,26.0000000000,41.0000000000,,,
2.7324218750,43,86.0000000000,26.0000000000,41.0000000000,,,
2.7343750000,43,52.0000000000,26.0000000000,41.0000000000,,,
2.7363281250,43,39.0000000000,26.0000000000,41.0000000000,,,
2.7382812500,43,66.0000000000,26.0000000000,41.0000000000,,,
2.7402343750,43,90.0000000000,26.0000000000,41.0000000000,,,
2.7421875000,43,97.0000000000,26.0000000000,41.0000000000,,,
2.7441406250,43,80.0000000000,26.0000000000,41.0000000000,,,
2.7460937500,43,67.0000000000,26.0000000000,41.0000000000,,,
2.7480468750,43,65.0000000000,26.0000000000,41.0000000000,,,
2.7500000000,44,59.0000000000,26.0000000000,41.0000000000,,,
2.7519531250,44,55.0000000000,26.0000000000,41.0000000000,,,
2.7539062500,44,59.0000000000,26.0000000000,41.0000000000,,,
2.7558593750,44,70.0000000000,26.0000000000,41.0000000000,,,
2.7578125000,44,71.0000000000,26.0000000000,41.0000000000,,,
2.7597656250,44,67.0000000000,26.0000000000,41.0000000000,,,
2.7617187500,44,57.0000000000,26.0000000000,41.0000000000,,,
2.7636718750,44,61.0000000000,26.0000000000,41.0000000000,,,
2.7656250000,44,64.0000000000,26.0000000000,41.0000000000,,,
2.7675781250,44,44.0000000000,26.0000000000,41.0000000000,,,
2.7695312500,44,42.0000000000,26.0000000000,41.0000000000,,,
2.7714843750,44,68.0000000000,26.0000000000,41.0000000000,,,
2.7734375000,44,84.0000000000,26.0000000000,41.0000000000,,,
2.7753906250,44,76.0000000000,26.0000000000,41.0000000000,,,
2.7773437500,44,66.0000000000,26.0000000000,41.0000000000,,,
2.7792968750,44,69.0000000000,26.0000000000,41.0000000000,,,
2.7812500000,44,87.0000000000,26.0000000000,41.0000000000,,,
2.7832031250,44,86.0000000000,26.0000000000,41.0000000000,,,
2.7851562500,44,66.0000000000,26.0000000000,41.0000000000,,,
2.7871093750,44,51.0000000000,26.0000000000,41.0000000000,,,
2.7890625000,44,55.0000000000,26.0000000000,41.0000000000,,,
2.7910156250,44,57.0000000000,26.0000000000,41.0000000000,,,
2.7929687500,44,43.0000000000,26.0000000000,41.0000000000,,,
2.7949218750,44,19.0000000000,26.0000000000,41.0000000000,,,
2.7968750000,44,23.0000000000,26.0000000000,41.0000000000,,,
2.7988281250,44,51.0000000000,26.0000000000,41.0000000000,,,
2.8007812500,44,58.0000000000,26.0000000000,41.0000000000,,,
2.8027343750,44,53.0000000000,26.0000000000,41.0000000000,,,
2.8046875000,44,67.0000000000,26.0000000000,41.0000000000,,,
2.8066406250,44,104.0000000000,26.0000000000,41.0000000000,,,
2.8085937500,44,118.0000000000,26.0000000000,41.0000000000,,,
2.8105468750,44,97.0000000000,26.0000000000,41.0000000000,,,
2.8125000000,45,86.0000000000,26.0000000000,41.0000000000,,,
2.8144531250,45,92.0000000000,26.0000000000,41.0000000000,,,
2.8164062500,45,88.0000000000,26.0000000000,41.0000000000,,,
2.8183593750,45,59.0000000000,26.0000000000,41.0000000000,,,
2.8203125000,45,33.0000000000,26.0000000000,41.0000000000,,,
2.8222656250,45,35.0000000000,26.0000000000,41.0000000000,,,
2.8242187500,45,57.0000000000,26.0000000000,41.0000000000,,,
2.8261718750,45,65.0000000000,26.0000000000,41.0000000000,,,
2.8281250000,45,43.0000000000,26.0000000000,41.0000000000,,,
2.8300781250,45,43.0000000000,26.0000000000,41.0000000000,,,
2.8320312500,45,70.0000000000,26.0000000000,41.0000000000,,,
2.8339843750,45,81.0000000000,26.0000000000,41.0000000000,,,
2.8359375000,45,75.0000000000,26.0000000000,41.0000000000,,,
2.8378906250,45,70.0000000000,26.0000000000,41.0000000000,,,
2.8398437500,45,74.0000000000,26.0000000000,41.0000000000,,,
2.8417968750,45,89.0000000000,26.0000000000,41.0000000000,,,
2.8437500000,45,90.0000000000,26.0000000000,41.0000000000,,,
2.8457031250,45,74.0000000000,26.0000000000,41.0000000000,,,
2.8476562500,45,74.0000000000,26.0000000000,41.0000000000,,,
2.8496093750,45,82.0000000000,26.0000000000,41.0000000000,,,
2.8515625000,45,84.0000000000,26.0000000000,41.0000000000,,,
2.8535156250,45,82.0000000000,26.0000000000,41.0000000000,,,
2.8554687500,45,76.0000000000,26.0000000000,41.0000000000,,,
2.8574218750,45,65.0000000000,26.0000000000,41.0000000000,,,
2.8593750000,45,55.0000000000,26.0000000000,41.0000000000,,,
2.8613281250,45,52.0000000000,26.0000000000,41.0000000000,,,
2.8632812500,45,60.0000000000,26.0000000000,41.0000000000,,,
2.8652343750,45,73.0000000000,26.0000000000,41.0000000000,,,
2.8671875000,45,64.0000000000,26.0000000000,41.0000000000,,,
2.8691406250,45,41.0000000000,26.0000000000,41.0000000000,,,
2.8710937500,45,22.0000000000,26.0000000000,41.0000000000,,,
2.8730468750,45,32.0000000000,26.0000000000,41.0000000000,,,
2.8750000000,46,65.0000000000,26.0000000000,41.0000000000,,,
2.8769531250,46,91.0000000000,26.0000000000,41.0000000000,,,
2.8789062500,46,112.0000000000,26.0000000000,41.0000000000,,,
2.8808593750,46,137.0000000000,26.0000000000,41.0000000000,,,
2.8828125000,46,139.0000000000,26.0000000000,41.0000000000,,,
2.8847656250,46,123.0000000000,26.0000000000,41.0000000000,,,
2.8867187500,46,118.0000000000,26.0000000000,41.0000000000,,,
2.8886718750,46,145.0000000000,26.0000000000,41.0000000000,,,
2.8906250000,46,182.0000000000,26.0000000000,41.0000000000,,,
2.8925781250,46,179.0000000000,26.0000000000,41.0000000000,,,
2.8945312500,46,125.0000000000,26.0000000000,41.0000000000,,,
2.8964843750,46,83.0000000000,26.0000000000,41.0000000000,,,
2.8984375000,46,82.0000000000,26.0000000000,41.0000000000,,,
2.9003906250,46,105.0000000000,26.0000000000,41.0000000000,,,
2.9023437500,46,117.0000000000,26.0000000000,41.0000000000,,,
2.9042968750,46,117.0000000000,26.0000000000,41.0000000000,,,
2.9062500000,46,128.0000000000,26.0000000000,41.0000000000,,,
2.9082031250,46,128.0000000000,26.0000000000,41.0000000000,,,
2.9101562500,46,92.0000000000,26.0000000000,41.0000000000,,,
2.9121093750,46,60.0000000000,26.0000000000,41.0000000000,,,
2.9140625000,46,68.0000000000,26.0000000000,41.0000000000,,,
2.9160156250,46,80.0000000000,26.0000000000,41.0000000000,,,
2.9179687500,46,60.0000000000,26.0000000000,41.0000000000,,,
2.9199218750,46,36.0000000000,26.0000000000,41.0000000000,,,
2.9218750000,46,34.0000000000,26.0000000000,41.0000000000,,,
2.9238281250,46,54.0000000000,26.0000000000,41.0000000000,,,
2.9257812500,46,64.0000000000,26.0000000000,41.0000000000,,,
2.9277343750,46,53.0000000000,26.0000000000,41.0000000000,,,
2.9296875000,46,48.0000000000,26.0000000000,41.0000000000,,,
2.9316406250,46,37.0000000000,26.0000000000,41.0000000000,,,
2.9335937500,46,12.0000000000,26.0000000000,41.0000000000,,,
2.9355468750,46,-7.0000000000,26.0000000000,41.0000000000,,,
2.9375000000,47,-3.0000000000,26.0000000000,41.0000000000,,,
2.9394531250,47,19.0000000000,26.0000000000,41.0000000000,,,
2.9414062500,47,39.0000000000,26.0000000000,41.0000000000,,,
2.9433593750,47,38.0000000000,26.0000000000,41.0000000000,,,
2.9453125000,47,35.0000000000,26.0000000000,41.0000000000,,,
2.9472656250,47,50.0000000000,26.0000000000,41.0000000000,,,
2.9492187500,47,69.0000000000,26.0000000000,41.0000000000,,,
2.9511718750,47,67.0000000000,26.0000000000,41.0000000000,,,
2.9531250000,47,53.0000000000,26.0000000000,41.0000000000,,,
2.9550781250,47,64.0000000000,26.0000000000,41.0000000000,,,
2.9570312500,47,89.0000000000,26.0000000000,41.0000000000,,,
2.9589843750,47,92.0000000000,26.0000000000,41.0000000000,,,
2.9609375000,47,54.0000000000,26.0000000000,41.0000000000,,,
2.9628906250,47,9.0000000000,26.0000000000,41.0000000000,,,
2.9648437500,47,6.0000000000,26.0000000000,41.0000000000,,,
2.9667968750,47,23.0000000000,26.0000000000,41.0000000000,,,
2.9687500000,47,29.0000000000,26.0000000000,41.0000000000,,,
2.9707031250,47,16.0000000000,26.0000000000,41.0000000000,,,
2.9726562500,47,12.0000000000,26.0000000000,41.0000000000,,,
2.9746093750,47,32.0000000000,26.0000000000,41.0000000000,,,
2.9765625000,47,39.0000000000,26.0000000000,41.0000000000,,,
2.9785156250,47,21.0000000000,26.0000000000,41.0000000000,,,
2.9804687500,47,5.0000000000,26.0000000000,41.0000000000,,,
2.9824218750,47,-1.0000000000,26.0000000000,41.0000000000,,,
2.9843750000,47,-10.0000000000,26.0000000000,41.0000000000,,,
2.9863281250,47,-22.0000000000,26.0000000000,41.0000000000,,,
2.9882812500,47,-17.0000000000,26.0000000000,41.0000000000,,,
2.9902343750,47,12.0000000000,26.0000000000,41.0000000000,,,
2.9921875000,47,33.0000000000,26.0000000000,41.0000000000,,,
2.9941406250,47,24.0000000000,26.0000000000,41.0000000000,,,
2.9960937500,47,18.0000000000,26.0000000000,41.0000000000,,,
2.9980468750,47,21.0000000000,26.0000000000,41.0000000000,,,
3.0000000000,48,10.0000000000,26.0000000000,41.0000000000,,,
3.0019531250,48,-4.0000000000,26.0000000000,41.0000000000,,,
3.0039062500,48,-12.0000000000,26.0000000000,41.0000000000,,,
3.0058593750,48,-3.0000000000,26.0000000000,41.0000000000,,,
3.0078125000,48,10.0000000000,26.0000000000,41.0000000000,,,
3.0097656250,48,-7.0000000000,26.0000000000,41.0000000000,,,
3.0117187500,48,-35.0000000000,26.0000000000,41.0000000000,,,
3.0136718750,48,-26.0000000000,26.0000000000,41.0000000000,,,
3.0156250000,48,7.0000000000,26.0000000000,41.0000000000,,,
3.0175781250,48,39.0000000000,26.0000000000,41.0000000000,,,
3.0195312500,48,24.0000000000,26.0000000000,41.0000000000,,,
3.0214843750,48,-9.0000000000,26.0000000000,41.0000000000,,,
3.0234375000,48,-7.0000000000,26.0000000000,41.0000000000,,,
3.0253906250,48,4.0000000000,26.0000000000,41.0000000000,,,
3.0273437500,48,9.0000000000,26.0000000000,41.0000000000,,,
3.0292968750,48,11.0000000000,26.0000000000,41.0000000000,,,
3.0312500000,48,23.0000000000,26.0000000000,41.0000000000,,,
3.0332031250,48,28.0000000000,26.0000000000,41.0000000000,,,
3.0351562500,48,27.0000000000,26.0000000000,41.0000000000,,,
3.0371093750,48,19.0000000000,26.0000000000,41.0000000000,,,
3.0390625000,48,20.0000000000,26.0000000000,41.0000000000,,,
3.0410156250,48,34.0000000000,26.0000000000,41.0000000000,,,
3.0429687500,48,43.0000000000,26.0000000000,41.0000000000,,,
3.0449218750,48,39.0000000000,26.0000000000,41.0000000000,,,
3.0468750000,48,38.0000000000,26.0000000000,41.0000000000,,,
3.0488281250,48,43.0000000000,26.0000000000,41.0000000000,,,
3.0507812500,48,48.0000000000,26.0000000000,41.0000000000,,,
3.0527343750,48,36.0000000000,26.0000000000,41.0000000000,,,
3.0546875000,48,24.0000000000,26.0000000000,41.0000000000,,,
3.0566406250,48,35.0000000000,26.0000000000,41.0000000000,,,
3.0585937500,48,44.0000000000,26.0000000000,41.0000000000,,,
3.0605468750,48,35.0000000000,26.0000000000,41.0000000000,,,
3.0625000000,49,23.0000000000,26.0000000000,41.0000000000,,,
3.0644531250,49,24.0000000000,26.0000000000,41.0000000000,,,
3.0664062500,49,25.0000000000,26.0000000000,41.0000000000,,,
3.0683593750,49,19.0000000000,26.0000000000,41.0000000000,,,
3.0703125000,49,17.0000000000,26.0000000000,41.0000000000,,,
3.0722656250,49,33.0000000000,26.0000000000,41.0000000000,,,
3.0742187500,49,58.0000000000,26.0000000000,41.0000000000,,,
3.0761718750,49,64.0000000000,26.0000000000,41.0000000000,,,
3.0781250000,49,50.0000000000,26.0000000000,41.0000000000,,,
3.0800781250,49,34.0000000000,26.0000000000,41.0000000000,,,
3.0820312500,49,22.0000000000,26.0000000000,41.0000000000,,,
3.0839843750,49,8.0000000000,26.0000000000,41.0000000000,,,
3.0859375000,49,1.0000000000,26.0000000000,41.0000000000,,,
3.0878906250,49,10.0000000000,26.0000000000,41.0000000000,,,
3.0898437500,49,27.0000000000,26.0000000000,41.0000000000,,,
3.0917968750,49,39.0000000000,26.0000000000,41.0000000000,,,
3.0937500000,49,29.0000000000,26.0000000000,41.0000000000,,,
3.0957031250,49,16.0000000000,26.0000000000,41.0000000000,,,
3.0976562500,49,25.0000000000,26.0000000000,41.0000000000,,,
3.0996093750,49,55.0000000000,26.0000000000,41.0000000000,,,
3.1015625000,49,72.0000000000,26.0000000000,41.0000000000,,,
3.1035156250,49,73.0000000000,26.0000000000,41.0000000000,,,
3.1054687500,49,90.0000000000,26.0000000000,41.0000000000,,,
3.1074218750,49,129.0000000000,26.0000000000,41.0000000000,,,
3.1093750000,49,147.0000000000,26.0000000000,41.0000000000,,,
3.1113281250,49,133.0000000000,26.0000000000,41.0000000000,,,
3.1132812500,49,109.0000000000,26.0000000000,41.0000000000,,,
3.1152343750,49,96.0000000000,26.0000000000,41.0000000000,,,
3.1171875000,49,64.0000000000,26.0000000000,41.0000000000,,,
3.1191406250,49,48.0000000000,26.0000000000,41.0000000000,,,
3.1210937500,49,64.0000000000,26.0000000000,41.0000000000,,,
3.1230468750,49,103.0000000000,26.0000000000,41.0000000000,,,
3.1250000000,50,162.0000000000,26.0000000000,41.0000000000,,,
3.1269531250,50,188.0000000000,26.0000000000,41.0000000000,,,
3.1289062500,50,194.0000000000,26.0000000000,41.0000000000,,,
3.1308593750,50,202.0000000000,26.0000000000,41.0000000000,,,
3.1328125000,50,229.0000000000,26.0000000000,41.0000000000,,,
3.1347656250,50,246.0000000000,26.0000000000,41.0000000000,,,
3.1367187500,50,260.0000000000,26.0000000000,41.0000000000,,,
3.1386718750,50,285.0000000000,26.0000000000,41.0000000000,,,
3.1406250000,50,322.0000000000,26.0000000000,41.0000000000,,,
3.1425781250,50,341.0000000000,26.0000000000,41.0000000000,,,
3.1445312500,50,339.0000000000,26.0000000000,41.0000000000,,,
3.1464843750,50,361.0000000000,26.0000000000,41.0000000000,,,
3.1484375000,50,403.0000000000,26.0000000000,41.0000000000,,,
3.1503906250,50,403.0000000000,26.0000000000,41.0000000000,,,
3.1523437500,50,379.0000000000,26.0000000000,41.0000000000,,,
3.1542968750,50,361.0000000000,26.0000000000,41.0000000000,,,
3.1562500000,50,345.0000000000,26.0000000000,41.0000000000,,,
3.1582031250,50,344.0000000000,26.0000000000,41.0000000000,,,
3.1601562500,50,352.0000000000,26.0000000000,41.0000000000,,,
3.1621093750,50,356.0000000000,26.0000000000,41.0000000000,,,
3.1640625000,50,356.0000000000,26.0000000000,41.0000000000,,,
3.1660156250,50,361.0000000000,26.0000000000,41.0000000000,,,
3.1679687500,50,352.0000000000,26.0000000000,41.0000000000,,,
3.1699218750,50,327.0000000000,26.0000000000,41.0000000000,,,
3.1718750000,50,321.0000000000,26.0000000000,41.0000000000,,,
3.1738281250,50,324.0000000000,26.0000000000,41.0000000000,,,
3.1757812500,50,315.0000000000,26.0000000000,41.0000000000,,,
3.1777343750,50,285.0000000000,26.0000000000,41.0000000000,,,
3.1796875000,50,246.0000000000,26.0000000000,41.0000000000,,,
3.1816406250,50,217.0000000000,26.0000000000,41.0000000000,,,
3.1835937500,50,193.0000000000,26.0000000000,41.0000000000,,,
3.1855468750,50,178.0000000000,26.0000000000,41.0000000000,,,
3.1875000000,51,178.0000000000,26.0000000000,41.0000000000,,,
3.1894531250,51,178.0000000000,26.0000000000,41.0000000000,,,
3.1914062500,51,185.0000000000,26.0000000000,41.0000000000,,,
3.1933593750,51,168.0000000000,26.0000000000,41.0000000000,,,
3.1953125000,51,135.0000000000,26.0000000000,41.0000000000,,,
3.1972656250,51,100.0000000000,26.0000000000,41.0000000000,,,
3.1992187500,51,61.0000000000,26.0000000000,41.0000000000,,,
3.2011718750,51,13.0000000000,26.0000000000,41.0000000000,,,
3.2031250000,51,-39.0000000000,26.0000000000,41.0000000000,,,
3.2050781250,51,-53.0000000000,26.0000000000,41.0000000000,,,
3.2070312500,51,-35.0000000000,26.0000000000,41.0000000000,,,
3.2089843750,51,-56.0000000000,26.0000000000,41.0000000000,,,
3.2109375000,51,-126.0000000000,26.0000000000,41.0000000000,,,
3.2128906250,51,-171.0000000000,26.0000000000,41.0000000000,,,
3.2148437500,51,-155.0000000000,26.0000000000,41.0000000000,,,
3.2167968750,51,-133.0000000000,26.0000000000,41.0000000000,,,
3.2187500000,51,-150.0000000000,26.0000000000,41.0000000000,,,
3.2207031250,51,-188.0000000000,26.0000000000,41.0000000000,,,
3.2226562500,51,-190.0000000000,26.0000000000,41.0000000000,,,
3.2246093750,51,-185.0000000000,26.0000000000,41.0000000000,,,
3.2265625000,51,-212.0000000000,26.0000000000,41.0000000000,,,
3.2285156250,51,-237.0000000000,26.0000000000,41.0000000000,,,
3.2304687500,51,-246.0000000000,26.0000000000,41.0000000000,,,
3.2324218750,51,-243.0000000000,26.0000000000,41.0000000000,,,
3.2343750000,51,-248.0000000000,26.0000000000,41.0000000000,,,
3.2363281250,51,-280.0000000000,26.0000000000,41.0000000000,,,
3.2382812500,51,-299.0000000000,26.0000000000,41.0000000000,,,
3.2402343750,51,-280.0000000000,26.0000000000,41.0000000000,,,
3.2421875000,51,-249.0000000000,26.0000000000,41.0000000000,,,
3.2441406250,51,-228.0000000000,26.0000000000,41.0000000000,,,
3.2460937500,51,-236.0000000000,26.0000000000,41.0000000000,,,
3.2480468750,51,-262.0000000000,26.0000000000,41.0000000000,,,
3.2500000000,52,-268.0000000000,26.0000000000,41.0000000000,,,
3.2519531250,52,-264.0000000000,26.0000000000,41.0000000000,,,
3.2539062500,52,-267.0000000000,26.0000000000,41.0000000000,,,
3.2558593750,52,-280.0000000000,26.0000000000,41.0000000000,,,
3.2578125000,52,-266.0000000000,26.0000000000,41.0000000000,,,
3.2597656250,52,-249.0000000000,26.0000000000,41.0000000000,,,
3.2617187500,52,-260.0000000000,26.0000000000,41.0000000000,,,
3.2636718750,52,-257.0000000000,26.0000000000,41.0000000000,,,
3.2656250000,52,-236.0000000000,26.0000000000,41.0000000000,,,
3.2675781250,52,-227.0000000000,26.0000000000,41.0000000000,,,
3.2695312500,52,-221.0000000000,26.0000000000,41.0000000000,,,
3.2714843750,52,-215.0000000000,26.0000000000,41.0000000000,,,
3.2734375000,52,-209.0000000000,26.0000000000,41.0000000000,,,
3.2753906250,52,-209.0000000000,26.0000000000,41.0000000000,,,
3.2773437500,52,-219.0000000000,26.0000000000,41.0000000000,,,
3.2792968750,52,-230.0000000000,26.0000000000,41.0000000000,,,
3.2812500000,52,-215.0000000000,26.0000000000,41.0000000000,,,
3.2832031250,52,-193.0000000000,26.0000000000,41.0000000000,,,
3.2851562500,52,-188.0000000000,26.0000000000,41.0000000000,,,
3.2871093750,52,-195.0000000000,26.0000000000,41.0000000000,,,
3.2890625000,52,-188.0000000000,26.0000000000,41.0000000000,,,
3.2910156250,52,-161.0000000000,26.0000000000,41.0000000000,,,
3.2929687500,52,-129.0000000000,26.0000000000,41.0000000000,,,
3.2949218750,52,-118.0000000000,26.0000000000,41.0000000000,,,
3.2968750000,52,-134.0000000000,26.0000000000,41.0000000000,,,
3.2988281250,52,-147.0000000000,26.0000000000,41.0000000000,,,
3.3007812500,52,-136.0000000000,26.0000000000,41.0000000000,,,
3.3027343750,52,-131.0000000000,26.0000000000,41.0000000000,,,
3.3046875000,52,-137.0000000000,26.0000000000,41.0000000000,,,
3.3066406250,52,-131.0000000000,26.0000000000,41.0000000000,,,
3.3085937500,52,-113.0000000000,26.0000000000,41.0000000000,,,
3.3105468750,52,-110.0000000000,26.0000000000,41.0000000000,,,
3.3125000000,53,-114.0000000000,26.0000000000,41.0000000000,,,
3.3144531250,53,-97.0000000000,26.0000000000,41.0000000000,,,
3.3164062500,53,-84.0000000000,26.0000000000,41.0000000000,,,
3.3183593750,53,-90.0000000000,26.0000000000,41.0000000000,,,
3.3203125000,53,-101.0000000000,26.0000000000,41.0000000000,,,
3.3222656250,53,-68.0000000000,26.0000000000,41.0000000000,,,
3.3242187500,53,-25.0000000000,26.0000000000,41.0000000000,,,
3.3261718750,53,-23.0000000000,26.0000000000,41.0000000000,,,
3.3281250000,53,-38.0000000000,26.0000000000,41.0000000000,,,
3.3300781250,53,-46.0000000000,26.0000000000,41.0000000000,,,
3.3320312500,53,-53.0000000000,26.0000000000,41.0000000000,,,
3.3339843750,53,-49.0000000000,26.0000000000,41.0000000000,,,
3.3359375000,53,-42.0000000000,26.0000000000,41.0000000000,,,
3.3378906250,53,-42.0000000000,26.0000000000,41.0000000000,,,
3.3398437500,53,-29.0000000000,26.0000000000,41.0000000000,,,
3.3417968750,53,-7.0000000000,26.0000000000,41.0000000000,,,
3.3437500000,53,0.0000000000,26.0000000000,41.0000000000,,,
3.3457031250,53,-3.0000000000,26.0000000000,41.0000000000,,,
3.3476562500,53,2.0000000000,26.0000000000,41.0000000000,,,
3.3496093750,53,18.0000000000,26.0000000000,41.0000000000,,,
3.3515625000,53,13.0000000000,26.0000000000,41.0000000000,,,
3.3535156250,53,4.0000000000,26.0000000000,41.0000000000,,,
3.3554687500,53,0.0000000000,26.0000000000,41.0000000000,,,
3.3574218750,53,2.0000000000,26.0000000000,41.0000000000,,,
3.3593750000,53,9.0000000000,26.0000000000,41.0000000000,,,
3.3613281250,53,5.0000000000,26.0000000000,41.0000000000,,,
3.3632812500,53,-7.0000000000,26.0000000000,41.0000000000,,,
3.3652343750,53,-7.0000000000,26.0000000000,41.0000000000,,,
3.3671875000,53,5.0000000000,26.0000000000,41.0000000000,,,
3.3691406250,53,10.0000000000,26.0000000000,41.0000000000,,,
3.3710937500,53,4.0000000000,26.0000000000,41.0000000000,,,
3.3730468750,53,-1.0000000000,26.0000000000,41.0000000000,,,
3.3750000000,54,11.0000000000,26.0000000000,41.0000000000,,,
3.3769531250,54,24.0000000000,26.0000000000,41.0000000000,,,
3.3789062500,54,20.0000000000,26.0000000000,41.0000000000,,,
3.3808593750,54,12.0000000000,26.0000000000,41.0000000000,,,
3.3828125000,54,18.0000000000,26.0000000000,41.0000000000,,,
3.3847656250,54,16.0000000000,26.0000000000,41.0000000000,,,
3.3867187500,54,10.0000000000,26.0000000000,41.0000000000,,,
3.3886718750,54,22.0000000000,26.0000000000,41.0000000000,,,
3.3906250000,54,38.0000000000,26.0000000000,41.0000000000,,,
3.3925781250,54,45.0000000000,26.0000000000,41.0000000000,,,
3.3945312500,54,37.0000000000,26.0000000000,41.0000000000,,,
3.3964843750,54,22.0000000000,26.0000000000,41.0000000000,,,
3.3984375000,54,25.0000000000,26.0000000000,41.0000000000,,,
3.4003906250,54,44.0000000000,26.0000000000,41.0000000000,,,
3.4023437500,54,57.0000000000,26.0000000000,41.0000000000,,,
3.4042968750,54,59.0000000000,26.0000000000,41.0000000000,,,
3.4062500000,54,68.0000000000,26.0000000000,41.0000000000,,,
3.4082031250,54,85.0000000000,26.0000000000,41.0000000000,,,
3.4101562500,54,98.0000000000,26.0000000000,41.0000000000,,,
3.4121093750,54,89.0000000000,26.0000000000,41.0000000000,,,
3.4140625000,54,77.0000000000,26.0000000000,41.0000000000,,,
3.4160156250,54,68.0000000000,26.0000000000,41.0000000000,,,
3.4179687500,54,43.0000000000,26.0000000000,41.0000000000,,,
3.4199218750,54,27.0000000000,26.0000000000,41.0000000000,,,
3.4218750000,54,41.0000000000,26.0000000000,41.0000000000,,,
3.4238281250,54,69.0000000000,26.0000000000,41.0000000000,,,
3.4257812500,54,80.0000000000,26.0000000000,41.0000000000,,,
3.4277343750,54,68.0000000000,26.0000000000,41.0000000000,,,
3.4296875000,54,43.0000000000,26.0000000000,41.0000000000,,,
3.4316406250,54,51.0000000000,26.0000000000,41.0000000000,,,
3.4335937500,54,69.0000000000,26.0000000000,41.0000000000,,,
3.4355468750,54,74.0000000000,26.0000000000,41.0000000000,,,
3.4375000000,55,74.0000000000,26.0000000000,41.0000000000,,,
3.4394531250,55,85.0000000000,26.0000000000,41.0000000000,,,
3.4414062500,55,71.0000000000,26.0000000000,41.0000000000,,,
3.4433593750,55,35.0000000000,26.0000000000,41.0000000000,,,
3.4453125000,55,24.0000000000,26.0000000000,41.0000000000,,,
3.4472656250,55,37.0000000000,26.0000000000,41.0000000000,,,
3.4492187500,55,56.0000000000,26.0000000000,41.0000000000,,,
3.4511718750,55,66.0000000000,26.0000000000,41.0000000000,,,
3.4531250000,55,57.0000000000,26.0000000000,41.0000000000,,,
3.4550781250,55,41.0000000000,26.0000000000,41.0000000000,,,
3.4570312500,55,39.0000000000,26.0000000000,41.0000000000,,,
3.4589843750,55,64.0000000000,26.0000000000,41.0000000000,,,
3.4609375000,55,76.0000000000,26.0000000000,41.0000000000,,,
3.4628906250,55,73.0000000000,26.0000000000,41.0000000000,,,
3.4648437500,55,74.0000000000,26.0000000000,41.0000000000,,,
3.4667968750,55,90.0000000000,26.0000000000,41.0000000000,,,
3.4687500000,55,86.0000000000,26.0000000000,41.0000000000,,,
3.4707031250,55,67.0000000000,26.0000000000,41.0000000000,,,
3.4726562500,55,51.0000000000,26.0000000000,41.0000000000,,,
3.4746093750,55,69.0000000000,26.0000000000,41.0000000000,,,
3.4765625000,55,105.0000000000,26.0000000000,41.0000000000,,,
3.4785156250,55,118.0000000000,26.0000000000,41.0000000000,,,
3.4804687500,55,100.0000000000,26.0000000000,41.0000000000,,,
3.4824218750,55,77.0000000000,26.0000000000,41.0000000000,,,
3.4843750000,55,64.0000000000,26.0000000000,41.0000000000,,,
3.4863281250,55,55.0000000000,26.0000000000,41.0000000000,,,
3.4882812500,55,69.0000000000,26.0000000000,41.0000000000,,,
3.4902343750,55,83.0000000000,26.0000000000,41.0000000000,,,
3.4921875000,55,75.0000000000,26.0000000000,41.0000000000,,,
3.4941406250,55,53.0000000000,26.0000000000,41.0000000000,,,
3.4960937500,55,34.0000000000,26.0000000000,41.0000000000,,,
3.4980468750,55,44.0000000000,26.0000000000,41.0000000000,,,
3.5000000000,56,72.0000000000,26.0000000000,41.0000000000,,,
3.5019531250,56,88.0000000000,26.0000000000,41.0000000000,,,
3.5039062500,56,70.0000000000,26.0000000000,41.0000000000,,,
3.5058593750,56,42.0000000000,26.0000000000,41.0000000000,,,
3.5078125000,56,53.0000000000,26.0000000000,41.0000000000,,,
3.5097656250,56,74.0000000000,26.0000000000,41.0000000000,,,
3.5117187500,56,76.0000000000,26.0000000000,41.0000000000,,,
3.5136718750,56,75.0000000000,26.0000000000,41.0000000000,,,
3.5156250000,56,80.0000000000,26.0000000000,41.0000000000,,,
3.5175781250,56,69.0000000000,26.0000000000,41.0000000000,,,
3.5195312500,56,39.0000000000,26.0000000000,41.0000000000,,,
3.5214843750,56,23.0000000000,26.0000000000,41.0000000000,,,
3.5234375000,56,36.0000000000,26.0000000000,41.0000000000,,,
3.5253906250,56,53.0000000000,26.0000000000,41.0000000000,,,
3.5273437500,56,66.0000000000,26.0000000000,41.0000000000,,,
3.5292968750,56,65.0000000000,26.0000000000,41.0000000000,,,
3.5312500000,56,56.0000000000,26.0000000000,41.0000000000,,,
3.5332031250,56,56.0000000000,26.0000000000,41.0000000000,,,
3.5351562500,56,68.0000000000,26.0000000000,41.0000000000,,,
3.5371093750,56,70.0000000000,26.0000000000,41.0000000000,,,
3.5390625000,56,53.0000000000,26.0000000000,41.0000000000,,,
3.5410156250,56,52.0000000000,26.0000000000,41.0000000000,,,
3.5429687500,56,66.0000000000,26.0000000000,41.0000000000,,,
3.5449218750,56,68.0000000000,26.0000000000,41.0000000000,,,
3.5468750000,56,60.0000000000,26.0000000000,41.0000000000,,,
3.5488281250,56,73.0000000000,26.0000000000,41.0000000000,,,
3.5507812500,56,101.0000000000,26.0000000000,41.0000000000,,,
3.5527343750,56,115.0000000000,26.0000000000,41.0000000000,,,
3.5546875000,56,114.0000000000,26.0000000000,41.0000000000,,,
3.5566406250,56,107.0000000000,26.0000000000,41.0000000000,,,
3.5585937500,56,112.0000000000,26.0000000000,41.0000000000,,,
3.5605468750,56,119.0000000000,26.0000000000,41.0000000000,,,
3.5625000000,57,99.0000000000,26.0000000000,41.0000000000,,,
3.5644531250,57,67.0000000000,26.0000000000,41.0000000000,,,
3.5664062500,57,69.0000000000,26.0000000000,41.0000000000,,,
3.5683593750,57,92.0000000000,26.0000000000,41.0000000000,,,
3.5703125000,57,97.0000000000,26.0000000000,41.0000000000,,,
3.5722656250,57,76.0000000000,26.0000000000,41.0000000000,,,
3.5742187500,57,72.0000000000,26.0000000000,41.0000000000,,,
3.5761718750,57,87.0000000000,26.0000000000,41.0000000000,,,
3.5781250000,57,84.0000000000,26.0000000000,41.0000000000,,,
3.5800781250,57,72.0000000000,26.0000000000,41.0000000000,,,
3.5820312500,57,72.0000000000,26.0000000000,41.0000000000,,,
3.5839843750,57,73.0000000000,26.0000000000,41.0000000000,,,
3.5859375000,57,67.0000000000,26.0000000000,41.0000000000,,,
3.5878906250,57,52.0000000000,26.0000000000,41.0000000000,,,
3.5898437500,57,54.0000000000,26.0000000000,41.0000000000,,,
3.5917968750,57,87.0000000000,26.0000000000,41.0000000000,,,
3.5937500000,57,116.0000000000,26.0000000000,41.0000000000,,,
3.5957031250,57,105.0000000000,26.0000000000,41.0000000000,,,
3.5976562500,57,69.0000000000,26.0000000000,41.0000000000,,,
3.5996093750,57,57.0000000000,26.0000000000,41.0000000000,,,
3.6015625000,57,60.0000000000,26.0000000000,41.0000000000,,,
3.6035156250,57,53.0000000000,26.0000000000,41.0000000000,,,
3.6054687500,57,25.0000000000,26.0000000000,41.0000000000,,,
3.6074218750,57,24.0000000000,26.0000000000,41.0000000000,,,
3.6093750000,57,42.0000000000,26.0000000000,41.0000000000,,,
3.6113281250,57,35.0000000000,26.0000000000,41.0000000000,,,
3.6132812500,57,1.0000000000,26.0000000000,41.0000000000,,,
3.6152343750,57,-9.0000000000,26.0000000000,41.0000000000,,,
3.6171875000,57,5.0000000000,26.0000000000,41.0000000000,,,
3.6191406250,57,7.0000000000,26.0000000000,41.0000000000,,,
3.6210937500,57,-1.0000000000,26.0000000000,41.0000000000,,,
3.6230468750,57,5.0000000000,26.0000000000,41.0000000000,,,
3.6250000000,58,39.0000000000,26.0000000000,41.0000000000,,,
3.6269531250,58,66.0000000000,26.0000000000,41.0000000000,,,
3.6289062500,58,67.0000000000,26.0000000000,41.0000000000,,,
3.6308593750,58,64.0000000000,26.0000000000,41.0000000000,,,
3.6328125000,58,70.0000000000,26.0000000000,41.0000000000,,,
3.6347656250,58,68.0000000000,26.0000000000,41.0000000000,,,
3.6367187500,58,42.0000000000,26.0000000000,41.0000000000,,,
3.6386718750,58,27.0000000000,26.0000000000,41.0000000000,,,
3.6406250000,58,39.0000000000,26.0000000000,41.0000000000,,,
3.6425781250,58,58.0000000000,26.0000000000,41.0000000000,,,
3.6445312500,58,59.0000000000,26.0000000000,41.0000000000,,,
3.6464843750,58,41.0000000000,26.0000000000,41.0000000000,,,
3.6484375000,58,24.0000000000,26.0000000000,41.0000000000,,,
3.6503906250,58,28.0000000000,26.0000000000,41.0000000000,,,
3.6523437500,58,37.0000000000,26.0000000000,41.0000000000,,,
3.6542968750,58,27.0000000000,26.0000000000,41.0000000000,,,
3.6562500000,58,22.0000000000,26.0000000000,41.0000000000,,,
3.6582031250,58,40.0000000000,26.0000000000,41.0000000000,,,
3.6601562500,58,72.0000000000,26.0000000000,41.0000000000,,,
3.6621093750,58,71.0000000000,26.0000000000,41.0000000000,,,
3.6640625000,58,51.0000000000,30.0000000000,24.0000000000,,,
3.6660156250,58,53.0000000000,30.0000000000,24.0000000000,,,
3.6679687500,58,65.0000000000,30.0000000000,24.0000000000,,,
3.6699218750,58,65.0000000000,30.0000000000,24.0000000000,,,
3.6718750000,58,65.0000000000,30.0000000000,24.0000000000,,,
3.6738281250,58,74.0000000000,30.0000000000,24.0000000000,,,
3.6757812500,58,85.0000000000,30.0000000000,24.0000000000,,,
3.6777343750,58,85.0000000000,30.0000000000,24.0000000000,,,
3.6796875000,58,67.0000000000,30.0000000000,24.0000000000,,,
3.6816406250,58,42.0000000000,30.0000000000,24.0000000000,,,
3.6835937500,58,36.0000000000,30.0000000000,24.0000000000,,,
3.6855468750,58,38.0000000000,30.0000000000,24.0000000000,,,
3.6875000000,59,34.0000000000,30.0000000000,24.0000000000,,,
3.6894531250,59,32.0000000000,30.0000000000,24.0000000000,,,
3.6914062500,59,40.0000000000,30.0000000000,24.0000000000,,,
3.6933593750,59,56.0000000000,30.0000000000,24.0000000000,,,
3.6953125000,59,64.0000000000,30.0000000000,24.0000000000,,,
3.6972656250,59,60.0000000000,30.0000000000,24.0000000000,,,
3.6992187500,59,68.0000000000,30.0000000000,24.0000000000,,,
3.7011718750,59,80.0000000000,30.0000000000,24.0000000000,,,
3.7031250000,59,69.0000000000,30.0000000000,24.0000000000,,,
3.7050781250,59,44.0000000000,30.0000000000,24.0000000000,,,
3.7070312500,59,44.0000000000,30.0000000000,24.0000000000,,,
3.7089843750,59,82.0000000000,30.0000000000,24.0000000000,,,
3.7109375000,59,108.0000000000,30.0000000000,24.0000000000,,,
3.7128906250,59,102.0000000000,30.0000000000,24.0000000000,,,
3.7148437500,59,81.0000000000,30.0000000000,24.0000000000,,,
3.7167968750,59,76.0000000000,30.0000000000,24.0000000000,,,
3.7187500000,59,83.0000000000,30.0000000000,24.0000000000,,,
3.7207031250,59,76.0000000000,30.0000000000,24.0000000000,,,
3.7226562500,59,57.0000000000,30.0000000000,24.0000000000,,,
3.7246093750,59,50.0000000000,30.0000000000,24.0000000000,,,
3.7265625000,59,60.0000000000,30.0000000000,24.0000000000,,,
3.7285156250,59,57.0000000000,30.0000000000,24.0000000000,,,
3.7304687500,59,38.0000000000,30.0000000000,24.0000000000,,,
3.7324218750,59,34.0000000000,30.0000000000,24.0000000000,,,
3.7343750000,59,43.0000000000,30.0000000000,24.0000000000,,,
3.7363281250,59,50.0000000000,30.0000000000,24.0000000000,,,
3.7382812500,59,40.0000000000,30.0000000000,24.0000000000,,,
3.7402343750,59,45.0000000000,30.0000000000,24.0000000000,,,
3.7421875000,59,60.0000000000,30.0000000000,24.0000000000,,,
3.7441406250,59,57.0000000000,30.0000000000,24.0000000000,,,
3.7460937500,59,51.0000000000,30.0000000000,24.0000000000,,,
3.7480468750,59,56.0000000000,30.0000000000,24.0000000000,,,
3.7500000000,60,66.0000000000,30.0000000000,24.0000000000,,,
3.7519531250,60,48.0000000000,30.0000000000,24.0000000000,,,
3.7539062500,60,17.0000000000,30.0000000000,24.0000000000,,,
3.7558593750,60,-1.0000000000,30.0000000000,24.0000000000,,,
3.7578125000,60,16.0000000000,30.0000000000,24.0000000000,,,
3.7597656250,60,61.0000000000,30.0000000000,24.0000000000,,,
3.7617187500,60,90.0000000000,30.0000000000,24.0000000000,,,
3.7636718750,60,82.0000000000,30.0000000000,24.0000000000,,,
3.7656250000,60,64.0000000000,30.0000000000,24.0000000000,,,
3.7675781250,60,67.0000000000,30.0000000000,24.0000000000,,,
3.7695312500,60,65.0000000000,30.0000000000,24.0000000000,,,
3.7714843750,60,52.0000000000,30.0000000000,24.0000000000,,,
3.7734375000,60,48.0000000000,30.0000000000,24.0000000000,,,
3.7753906250,60,57.0000000000,30.0000000000,24.0000000000,,,
3.7773437500,60,73.0000000000,30.0000000000,24.0000000000,,,
3.7792968750,60,80.0000000000,30.0000000000,24.0000000000,,,
3.7812500000,60,66.0000000000,30.0000000000,24.0000000000,,,
3.7832031250,60,52.0000000000,30.0000000000,24.0000000000,,,
3.7851562500,60,43.0000000000,30.0000000000,24.0000000000,,,
3.7871093750,60,37.0000000000,30.0000000000,24.0000000000,,,
3.7890625000,60,28.0000000000,30.0000000000,24.0000000000,,,
3.7910156250,60,28.0000000000,30.0000000000,24.0000000000,,,
3.7929687500,60,53.0000000000,30.0000000000,24.0000000000,,,
3.7949218750,60,73.0000000000,30.0000000000,24.0000000000,,,
3.7968750000,60,71.0000000000,30.0000000000,24.0000000000,,,
3.7988281250,60,64.0000000000,30.0000000000,24.0000000000,,,
3.8007812500,60,68.0000000000,30.0000000000,24.0000000000,,,
3.8027343750,60,64.0000000000,30.0000000000,24.0000000000,,,
3.8046875000,60,50.0000000000,30.0000000000,24.0000000000,,,
3.8066406250,60,44.0000000000,30.0000000000,24.0000000000,,,
3.8085937500,60,67.0000000000,30.0000000000,24.0000000000,,,
3.8105468750,60,96.0000000000,30.0000000000,24.0000000000,,,
3.8125000000,61,102.0000000000,30.0000000000,24.0000000000,,,
3.8144531250,61,85.0000000000,30.0000000000,24.0000000000,,,
3.8164062500,61,68.0000000000,30.0000000000,24.0000000000,,,
3.8183593750,61,69.0000000000,30.0000000000,24.0000000000,,,
3.8203125000,61,73.0000000000,30.0000000000,24.0000000000,,,
3.8222656250,61,68.0000000000,30.0000000000,24.0000000000,,,
3.8242187500,61,66.0000000000,30.0000000000,24.0000000000,,,
3.8261718750,61,72.0000000000,30.0000000000,24.0000000000,,,
3.8281250000,61,71.0000000000,30.0000000000,24.0000000000,,,
3.8300781250,61,56.0000000000,30.0000000000,24.0000000000,,,
3.8320312500,61,43.0000000000,30.0000000000,24.0000000000,,,
3.8339843750,61,49.0000000000,30.0000000000,24.0000000000,,,
3.8359375000,61,51.0000000000,30.0000000000,24.0000000000,,,
