Time:250Hz,Epoch,Electrode,Attention,Meditation,Event Id,Event Date,Event Duration
0,0,-102.5598833,1.971001406,32.85002344,,,
0.004,0,-159.9637232,3.147037416,52.45004721,,,
0.008,0,-171.0156457,3.062282578,51.13747517,,,
0.012,0,-193.1268687,2.979779235,49.63898823,,,
0.016,0,-214.0194733,3.131540325,50.46679352,,,
0.02,0,-224.0538263,2.728256958,49.04889935,,,
0.024,0,-234.8705497,1.520766742,44.8226836,,,
0.028,0,-261.4723611,0.879354193,42.57773968,,,
0.032,1,-331.7604828,0.973926751,42.90874363,,,
0.036,1,-411.4251355,1.012308072,43.04307825,,,
0.04,1,-396.52219,0.999563383,42.99847184,,,
0.044,1,-343.7803122,1,43,,,
0.048,1,-323.2357068,1,43,,,
0.052,1,-288.9044761,1,43,,,
0.056,1,-268.8681232,1,43,,,
0.06,1,-296.7807422,1,43,,,
0.064,2,-298.3590472,1,43,,,
0.068,2,-268.991249,1,43,,,
0.072,2,-270.5277044,1,43,,,
0.076,2,-301.4762321,1,43,,,
0.08,2,-289.9872369,1,43,,,
0.084,2,-241.1959449,1,43,,,
0.088,2,-228.5658388,1,43,,,
0.092,2,-245.151431,1,43,,,
0.096,3,-252.9275742,1,43,,,
0.1,3,-275.1559644,1,43,,,
0.104,3,-303.2795258,1,43,,,
0.108,3,-273.4640535,1,43,,,
0.112,3,-195.1055074,1,43,,,
0.116,3,-142.1992535,1,43,,,
0.12,3,-138.2425317,1,43,,,
0.124,3,-144.8019684,1,43,,,
0.128,4,-166.3863788,1,43,,,
0.132,4,-181.8578503,1,43,,,
0.136,4,-152.8367575,1,43,,,
0.14,4,-117.4821312,1,43,,,
0.144,4,-98.42942342,1,43,,,
0.148,4,-60.44810821,1,43,,,
0.152,4,-22.75959381,1,43,,,
0.156,4,-3.045559414,1,43,,,
0.16,5,6.930639396,1,43,,,
0.164,5,16.7993375,1,43,,,
0.168,5,26.44968686,1,43,,,
0.172,5,23.27373209,1,43,,,
0.176,5,5.669771853,1,43,,,
0.18,5,1.34970758,1,43,,,
0.184,5,10.13979308,1,43,,,
0.188,5,4.996192788,1,43,,,
0.192,6,-7.6635638,1,43,,,
0.196,6,-3.086955311,1,43,,,
0.2,6,16.14458621,1,43,,,
0.204,6,45.17181699,1,43,,,
0.208,6,73.42726561,1,43,,,
0.212,6,48.61200594,1,43,,,
0.216,6,8.426640378,1,43,,,
0.22,6,35.19759002,1,43,,,
0.224,7,86.90596839,1,43,,,
0.228,7,102.8060808,1,43,,,
0.232,7,114.4755326,1,43,,,
0.236,7,109.1627349,1,43,,,
0.24,7,60.82338158,1,43,,,
0.244,7,52.65003836,1,43,,,
0.248,7,86.06529265,1,43,,,
0.252,7,6.497214988,1,43,,,
0.256,8,-15.90836168,1,43,,,
0.26,8,135.7785101,1,43,,,
0.264,8,223.7107819,1,43,,,
0.268,8,263.0095484,1,43,,,
0.272,8,301.4134838,1,43,,,
0.276,8,203.656359,1,43,,,
0.28,8,17.65103643,1,43,,,
0.284,8,-50.72235263,1,43,,,
0.288,9,51.28607097,1,43,,,
0.292,9,167.9803321,1,43,,,
0.296,9,235.3639088,1,43,,,
0.3,9,264.2783032,1,43,,,
0.304,9,216.3308292,1,43,,,
0.308,9,150.2184354,1,43,,,
0.312,9,132.6494395,1,43,,,
0.316,9,171.4706794,1,43,,,
0.32,10,213.6751367,1,43,,,
0.324,10,189.3085049,1,43,,,
0.328,10,145.6297937,1,43,,,
0.332,10,164.6552154,1,43,,,
0.336,10,180.5713146,1,43,,,
0.34,10,154.5803803,1,43,,,
0.344,10,146.6985324,1,43,,,
0.348,10,156.9035673,1,43,,,
0.352,11,145.0795032,1,43,,,
0.356,11,118.0339195,1,43,,,
0.36,11,91.17505425,1,43,,,
0.364,11,80.90603153,1,43,,,
0.368,11,79.68921939,1,43,,,
0.372,11,66.32367084,1,43,,,
0.376,11,44.74848079,1,43,,,
0.38,11,38.45761376,1,43,,,
0.384,12,45.28223691,1,43,,,
0.388,12,56.73575997,1,43,,,
0.392,12,71.1616085,1,43,,,
0.396,12,74.52086396,1,43,,,
0.4,12,84.8239309,1,43,,,
0.404,12,107.8845546,1,43,,,
0.408,12,124.9578512,1,43,,,
0.412,12,123.9427301,1,43,,,
0.416,13,117.8514699,1,43,,,
0.42,13,121.3782326,1,43,,,
0.424,13,125.8830423,1,43,,,
0.428,13,122.2990539,1,43,,,
0.432,13,127.6374421,1,43,,,
0.436,13,115.0540191,1,43,,,
0.44,13,84.41834766,1,43,,,
0.444,13,59.58372597,1,43,,,
0.448,14,56.82555699,1,43,,,
0.452,14,71.24702993,1,43,,,
0.456,14,73.64023359,1,43,,,
0.46,14,46.91170552,1,43,,,
0.464,14,20.5514881,1,43,,,
0.468,14,31.93226046,1,43,,,
0.472,14,68.10061392,1,43,,,
0.476,14,94.59003374,1,43,,,
0.48,15,116.9320793,1,43,,,
0.484,15,148.2662173,1,43,,,
0.488,15,148.7722874,1,43,,,
0.492,15,119.8954118,1,43,,,
0.496,15,82.72826729,1,43,,,
0.5,15,35.78759082,1,43,,,
0.504,15,18.56876776,1,43,,,
0.508,15,60.2492044,1,43,,,
0.512,16,97.11356792,1,43,,,
0.516,16,69.58385541,1,43,,,
0.52,16,16.92146426,1,43,,,
0.524,16,22.75905886,1,43,,,
0.528,16,57.95899746,1,43,,,
0.532,16,67.74692237,1,43,,,
0.536,16,-7.952065783,1,43,,,
0.54,16,-78.81257503,1,43,,,
0.544,17,-14.18889474,1,43,,,
0.548,17,99.98646198,1,43,,,
0.552,17,181.8125526,1,43,,,
0.556,17,146.9641983,1,43,,,
0.56,17,39.29825212,1,43,,,
0.564,17,36.2998458,1,43,,,
0.568,17,106.4360036,1,43,,,
0.572,17,158.1470839,1,43,,,
0.576,18,116.3755774,1,43,,,
0.58,18,6.615267911,1,43,,,
0.584,18,18.90931516,1,43,,,
0.588,18,102.1159517,1,43,,,
0.592,18,110.2517656,1,43,,,
0.596,18,58.11059715,1,43,,,
0.6,18,-16.04343146,1,43,,,
0.604,18,-44.23672646,1,43,,,
0.608,19,27.46132522,1,43,,,
0.612,19,128.0709445,1,43,,,
0.616,19,160.0265542,1,43,,,
0.62,19,76.63135892,1,43,,,
0.624,19,11.4132918,1,43,,,
0.628,19,3.466984215,1,43,,,
0.632,19,-29.73314094,1,43,,,
0.636,19,44.82069616,1,43,,,
0.64,20,101.25809,1,43,,,
0.644,20,60.82988129,1,43,,,
0.648,20,162.0708435,1,43,,,
0.652,20,265.9898701,1,43,,,
0.656,20,186.2027234,1,43,,,
0.66,20,19.5191086,1,43,,,
0.664,20,-18.97901914,1,43,,,
0.668,20,98.83538607,1,43,,,
0.672,21,202.6328782,1,43,,,
0.676,21,233.8603559,1,43,,,
0.68,21,166.6841994,1,43,,,
0.684,21,38.53839055,1,43,,,
0.688,21,66.16196788,1,43,,,
0.692,21,171.9802404,1,43,,,
0.696,21,109.7934541,1,43,,,
0.7,21,63.81655779,1,43,,,
0.704,22,121.8285736,1,43,,,
0.708,22,129.078594,1,43,,,
0.712,22,125.5872286,1,43,,,
0.716,22,153.9701117,1,43,,,
0.72,22,82.10898306,1,43,,,
0.724,22,-6.206759845,1,43,,,
0.728,22,69.68762632,1,43,,,
0.732,22,153.982098,1,43,,,
0.736,23,90.88794053,1,43,,,
0.74,23,102.1655146,1,43,,,
0.744,23,244.353844,1,43,,,
0.748,23,290.7937644,1,43,,,
0.752,23,184.2413938,1,43,,,
0.756,23,86.51343199,1,43,,,
0.76,23,134.2619715,1,43,,,
0.764,23,178.5038368,1,43,,,
0.768,24,191.9695503,1,43,,,
0.772,24,265.40331,1,43,,,
0.776,24,232.3549915,1,43,,,
0.78,24,69.7013104,1,43,,,
0.784,24,33.15826474,1,43,,,
0.788,24,75.428976,1,43,,,
0.792,24,43.02708131,1,43,,,
0.796,24,56.77377626,1,43,,,
0.8,25,160.9243413,1,43,,,
0.804,25,253.4753104,1,43,,,
0.808,25,242.1355185,1,43,,,
0.812,25,125.3126353,1,43,,,
0.816,25,35.50697759,1,43,,,
0.82,25,-40.0766109,1,43,,,
0.824,25,-5.602931576,1,43,,,
0.828,25,136.1637513,1,43,,,
0.832,26,-41.50011424,1,43,,,
0.836,26,-38.77378249,1,43,,,
0.84,26,388.4415145,1,43,,,
0.844,26,521.3244203,1,43,,,
0.848,26,517.8689811,1,43,,,
0.852,26,488.2529441,1,43,,,
0.856,26,381.7102637,1,43,,,
0.86,26,411.9935562,1,43,,,
0.864,27,469.9628793,1,43,,,
0.868,27,429.9806342,1,43,,,
0.872,27,193.3394108,1,43,,,
0.876,27,-46.64827144,1,43,,,
0.88,27,-46.91026655,1,43,,,
0.884,27,99.54841951,1,43,,,
0.888,27,201.242984,1,43,,,
0.892,27,233.4726459,1,43,,,
0.896,28,273.2344547,1,43,,,
0.9,28,228.9410968,1,43,,,
0.904,28,55.64247646,1,43,,,
0.908,28,-108.1681668,1,43,,,
0.912,28,-62.77669458,1,43,,,
0.916,28,136.7124871,1,43,,,
0.92,28,226.0815544,1,43,,,
0.924,28,260.0128192,1,43,,,
0.928,29,213.2950817,1,43,,,
0.932,29,60.0560677,1,43,,,
0.936,29,26.07615864,1,43,,,
0.94,29,-35.01029589,1,43,,,
0.944,29,-220.8937261,1,43,,,
0.948,29,-221.9542808,1,43,,,
0.952,29,-93.65020236,1,43,,,
0.956,29,2.020809306,1,43,,,
0.96,30,108.8118653,1,43,,,
0.964,30,76.37841734,1,43,,,
0.968,30,26.20409066,1,43,,,
0.972,30,10.11645393,1,43,,,
0.976,30,-253.4878342,1,43,,,
0.98,30,-520.4725484,1,43,,,
0.984,30,-485.9108372,1,43,,,
0.988,30,-193.6152267,1,43,,,
0.992,31,240.0723149,1,43,,,
0.996,31,416.8427325,1,43,,,
1,31,266.4428866,1,43,,,
1.004,31,14.74914479,1,42.99997811,,,
1.008,31,-188.903803,1,43.00377591,,,
1.012,31,-242.4448795,1,42.99908865,,,
1.016,31,-274.787761,1,42.93447297,,,
1.02,31,-270.052748,1,43.13587152,,,
1.024,32,-202.0113046,1,43.73961663,,,
1.028,32,-150.5107608,1,44.0603229,,,
1.032,32,-115.779452,1,44.01303662,,,
1.036,32,-228.2703236,1,43.99384596,,,
1.04,32,-329.4592367,1,44.00021831,,,
1.044,32,-54.9367121,1,44,,,
1.048,32,256.7068618,1,44,,,
1.052,32,122.9090511,1,44,,,
1.056,33,-28.56624448,1,44,,,
1.06,33,40.0619387,1,44,,,
1.064,33,-154.2451495,1,44,,,
1.068,33,-84.97683832,1,44,,,
1.072,33,313.8747282,1,44,,,
1.076,33,-209.4957535,1,44,,,
1.08,33,-922.3790046,1,44,,,
1.084,33,-520.3368994,1,44,,,
1.088,34,-206.4458083,1,44,,,
1.092,34,-175.1781851,1,44,,,
1.096,34,296.2672274,1,44,,,
1.1,34,235.7057905,1,44,,,
1.104,34,-351.7638043,1,44,,,
1.108,34,-465.7265364,1,44,,,
1.112,34,-224.1683662,1,44,,,
1.116,34,-280.0655265,1,44,,,
1.12,35,-688.5947172,1,44,,,
1.124,35,-748.4958565,1,44,,,
1.128,35,-646.1467472,1,44,,,
1.132,35,-903.5610217,1,44,,,
1.136,35,-734.5925553,1,44,,,
1.14,35,-393.8299649,1,44,,,
1.144,35,-620.7927229,1,44,,,
1.148,35,-904.3763509,1,44,,,
1.152,36,-940.5122014,1,44,,,
1.156,36,-995.7579465,1,44,,,
1.16,36,-652.3379993,1,44,,,
1.164,36,-138.0947562,1,44,,,
1.168,36,-510.2169586,1,44,,,
1.172,36,-758.4945516,1,44,,,
1.176,36,-303.121029,1,44,,,
1.18,36,-239.4385783,1,44,,,
1.184,37,-110.5251316,1,44,,,
1.188,37,41.3935221,1,44,,,
1.192,37,-518.608913,1,44,,,
1.196,37,-755.5025152,1,44,,,
1.2,37,-294.8863301,1,44,,,
1.204,37,-123.729904,1,44,,,
1.208,37,-348.410523,1,44,,,
1.212,37,-421.3041047,1,44,,,
1.216,38,-239.9624595,1,44,,,
1.22,38,43.98152202,1,44,,,
1.224,38,155.2274895,1,44,,,
1.228,38,-247.5507739,1,44,,,
1.232,38,-716.4360571,1,44,,,
1.236,38,-360.8292994,1,44,,,
1.24,38,126.7904706,1,44,,,
1.244,38,260.7712424,1,44,,,
1.248,39,420.5573389,1,44,,,
1.252,39,119.4468274,1,44,,,
1.256,39,-244.1146937,1,44,,,
1.26,39,-5.84369696,1,44,,,
1.264,39,85.09692184,1,44,,,
1.268,39,62.47604354,1,44,,,
1.272,39,462.1385497,1,44,,,
1.276,39,590.09308,1,44,,,
1.28,40,322.6882637,1,44,,,
1.284,40,308.2405744,1,44,,,
1.288,40,368.4498416,1,44,,,
1.292,40,184.4006843,1,44,,,
1.296,40,39.42231937,1,44,,,
1.3,40,219.5175149,1,44,,,
1.304,40,525.7158179,1,44,,,
1.308,40,576.5343425,1,44,,,
1.312,41,511.5645498,1,44,,,
1.316,41,531.1772988,1,44,,,
1.32,41,339.8132808,1,44,,,
1.324,41,197.2985232,1,44,,,
1.328,41,409.1718901,1,44,,,
1.332,41,541.9588076,1,44,,,
1.336,41,426.0184142,1,44,,,
1.34,41,380.5455211,1,44,,,
1.344,42,413.0104949,1,44,,,
1.348,42,474.3583883,1,44,,,
1.352,42,719.9755488,1,44,,,
1.356,42,648.9356013,1,44,,,
1.36,42,462.8941095,1,44,,,
1.364,42,612.0025723,1,44,,,
1.368,42,661.5808726,1,44,,,
1.372,42,584.7093324,1,44,,,
1.376,43,578.138001,1,44,,,
1.38,43,526.5847703,1,44,,,
1.384,43,303.4726667,1,44,,,
1.388,43,355.3816205,1,44,,,
1.392,43,652.2807348,1,44,,,
1.396,43,568.2385742,1,44,,,
1.4,43,353.8630802,1,44,,,
1.404,43,380.9572721,1,44,,,
1.408,44,654.8696374,1,44,,,
1.412,44,897.242329,1,44,,,
1.416,44,720.8613838,1,44,,,
1.42,44,547.3100019,1,44,,,
1.424,44,601.740946,1,44,,,
1.428,44,606.8940672,1,44,,,
1.432,44,576.3355146,1,44,,,
1.436,44,525.7562186,1,44,,,
1.44,45,460.5612083,1,44,,,
1.444,45,244.0920559,1,44,,,
1.448,45,261.9936411,1,44,,,
1.452,45,728.8234338,1,44,,,
1.456,45,749.2746234,1,44,,,
1.46,45,536.4863211,1,44,,,
1.464,45,686.304757,1,44,,,
1.468,45,590.3474094,1,44,,,
1.472,46,264.9070229,1,44,,,
1.476,46,399.6656461,1,44,,,
1.48,46,701.7236868,1,44,,,
1.484,46,726.0400087,1,44,,,
1.488,46,587.6664653,1,44,,,
1.492,46,303.9140292,1,44,,,
1.496,46,137.8977927,1,44,,,
1.5,46,238.4112927,1,44,,,
1.504,47,302.4693734,1,44,,,
1.508,47,447.335064,1,44,,,
1.512,47,676.3263076,1,44,,,
1.516,47,684.3382634,1,44,,,
1.52,47,604.9587174,1,44,,,
1.524,47,491.4853114,1,44,,,
1.528,47,232.2574673,1,44,,,
1.532,47,132.2417405,1,44,,,
1.536,48,309.2804576,1,44,,,
1.54,48,422.3668124,1,44,,,
1.544,48,488.9936587,1,44,,,
1.548,48,499.5454218,1,44,,,
1.552,48,365.3177381,1,44,,,
1.556,48,279.4217499,1,44,,,
1.56,48,258.1549688,1,44,,,
1.564,48,227.5348295,1,44,,,
1.568,49,306.1580387,1,44,,,
1.572,49,361.6028191,1,44,,,
1.576,49,292.1819294,1,44,,,
1.58,49,238.4784341,1,44,,,
1.584,49,142.7223055,1,44,,,
1.588,49,176.0196558,1,44,,,
1.592,49,326.8064026,1,44,,,
1.596,49,299.5193404,1,44,,,
1.6,50,221.4091697,1,44,,,
1.604,50,182.2942106,1,44,,,
1.608,50,151.7908715,1,44,,,
1.612,50,178.967641,1,44,,,
1.616,50,241.756482,1,44,,,
1.62,50,232.3625261,1,44,,,
1.624,50,206.0928718,1,44,,,
1.628,50,208.9181372,1,44,,,
1.632,51,121.9207669,1,44,,,
1.636,51,120.0807677,1,44,,,
1.64,51,217.8571622,1,44,,,
1.644,51,220.0369404,1,44,,,
1.648,51,192.0869198,1,44,,,
1.652,51,166.7386057,1,44,,,
1.656,51,151.4326864,1,44,,,
1.66,51,172.3430016,1,44,,,
1.664,52,199.2629255,1,44,,,
1.668,52,194.6392724,1,44,,,
1.672,52,119.5223132,1,44,,,
1.676,52,75.69825816,1,44,,,
1.68,52,107.0903712,1,44,,,
1.684,52,139.4177449,1,44,,,
1.688,52,150.6939602,1,44,,,
1.692,52,151.8489254,1,44,,,
1.696,53,144.1430821,1,44,,,
1.7,53,106.9157766,1,44,,,
1.704,53,106.7863899,1,44,,,
1.708,53,94.0370767,1,44,,,
1.712,53,43.20583698,1,44,,,
1.716,53,62.60423216,1,44,,,
1.72,53,111.8632119,1,44,,,
1.724,53,98.28314988,1,44,,,
1.728,54,10.52651542,1,44,,,
1.732,54,-71.76750906,1,44,,,
1.736,54,-44.25254892,1,44,,,
1.74,54,-9.05319122,1,44,,,
1.744,54,-24.4104289,1,44,,,
1.748,54,-5.714303061,1,44,,,
1.752,54,10.95662233,1,44,,,
1.756,54,-7.924602789,1,44,,,
1.76,55,-30.53720306,1,44,,,
1.764,55,-46.99844813,1,44,,,
1.768,55,-85.53578605,1,44,,,
1.772,55,-145.4119735,1,44,,,
1.776,55,-149.6353005,1,44,,,
1.78,55,-71.44284289,1,44,,,
1.784,55,-22.75793996,1,44,,,
1.788,55,9.331439874,1,44,,,
1.792,56,71.8023047,1,44,,,
1.796,56,58.66834694,1,44,,,
1.8,56,-28.55795565,1,44,,,
1.804,56,-67.62018697,1,44,,,
1.808,56,-23.32383528,1,44,,,
1.812,56,24.63171803,1,44,,,
1.816,56,35.70294152,1,44,,,
1.82,56,57.32100863,1,44,,,
1.824,57,68.90961902,1,44,,,
1.828,57,70.06271104,1,44,,,
1.832,57,75.08213015,1,44,,,
1.836,57,58.35268446,1,44,,,
1.84,57,55.20086144,1,44,,,
1.844,57,84.67034462,1,44,,,
1.848,57,100.7741853,1,44,,,
1.852,57,75.44723604,1,44,,,
1.856,58,32.99499266,1,44,,,
1.86,58,18.81213793,1,44,,,
1.864,58,8.376663947,1,44,,,
1.868,58,-8.470044998,1,44,,,
1.872,58,-13.24352654,1,44,,,
1.876,58,-67.87479494,1,44,,,
1.88,58,-125.4853235,1,44,,,
1.884,58,-88.62085645,1,44,,,
1.888,59,-56.27279089,1,44,,,
1.892,59,-104.9287167,1,44,,,
1.896,59,-133.9304107,1,44,,,
1.9,59,-155.2021006,1,44,,,
1.904,59,-214.8973559,1,44,,,
1.908,59,-268.7056027,1,44,,,
1.912,59,-345.4095559,1,44,,,
1.916,59,-461.4595094,1,44,,,
1.92,60,-504.8793045,1,44,,,
1.924,60,-465.8687724,1,44,,,
1.928,60,-469.867939,1,44,,,
1.932,60,-518.8613594,1,44,,,
1.936,60,-558.376459,1,44,,,
1.94,60,-594.129693,1,44,,,
1.944,60,-570.6877488,1,44,,,
1.948,60,-531.9334633,1,44,,,
1.952,61,-540.8667338,1,44,,,
1.956,61,-531.2323955,1,44,,,
1.96,61,-530.7751533,1,44,,,
1.964,61,-569.4026778,1,44,,,
1.968,61,-619.867703,1,44,,,
1.972,61,-676.9847573,1,44,,,
1.976,61,-673.9524708,1,44,,,
1.98,61,-611.7951215,1,44,,,
1.984,62,-579.7633339,1,44,,,
1.988,62,-597.1928102,1,44,,,
1.992,62,-620.4886918,1,44,,,
1.996,62,-664.3075305,1,44,,,
2,62,-732.8955705,1,44,,,
2.004,62,-590.2720483,0.99986867,44.00002189,,,
2.008,62,-341.2491615,1.022655439,43.99622409,,,
2.012,62,-302.7267924,0.99453187,44.00091135,,,
2.016,63,-387.7371503,0.606837796,44.06552703,,,
2.02,63,-443.9197862,1.815229127,43.86412848,,,
2.024,63,-487.9959722,5.437699773,43.26038337,,,
2.028,63,-525.4825563,7.361937421,42.9396771,,,
2.032,63,-518.467772,7.078219747,42.98696338,,,
2.036,63,-463.2704849,6.963075785,43.00615404,,,
2.04,63,-468.0950047,7.001309852,42.99978169,,,
2.044,63,-476.0601191,7,43,,,
2.048,64,-303.965575,7,43,,,
2.052,64,-167.8517767,7,43,,,
2.056,64,-193.748315,7,43,,,
2.06,64,-245.3134859,7,43,,,
2.064,64,-288.9243357,7,43,,,
2.068,64,-330.2147283,7,43,,,
2.072,64,-361.0005571,7,43,,,
2.076,64,-326.38132,7,43,,,
2.08,65,-271.0113645,7,43,,,
2.084,65,-286.6393422,7,43,,,
2.088,65,-319.5127468,7,43,,,
2.092,65,-326.3490244,7,43,,,
2.096,65,-319.7397816,7,43,,,
2.1,65,-310.5420653,7,43,,,
2.104,65,-295.0624309,7,43,,,
2.108,65,-302.8887556,7,43,,,
2.112,66,-324.5831249,7,43,,,
2.116,66,-332.3293342,7,43,,,
2.12,66,-341.9826087,7,43,,,
2.124,66,-325.6124226,7,43,,,
2.128,66,-289.8967424,7,43,,,
2.132,66,-280.7113616,7,43,,,
2.136,66,-284.3496213,7,43,,,
2.14,66,-270.6394727,7,43,,,
2.144,67,-252.5186271,7,43,,,
2.148,67,-257.6971049,7,43,,,
2.152,67,-266.0068264,7,43,,,
2.156,67,-247.5002739,7,43,,,
2.16,67,-237.8169884,7,43,,,
2.164,67,-241.7739696,7,43,,,
2.168,67,-242.43368,7,43,,,
2.172,67,-237.2046992,7,43,,,
2.176,68,-226.8665491,7,43,,,
2.18,68,-190.1187214,7,43,,,
2.184,68,-129.2334447,7,43,,,
2.188,68,-90.85144476,7,43,,,
2.192,68,-86.15378416,7,43,,,
2.196,68,-79.88884496,7,43,,,
2.2,68,-98.98117987,7,43,,,
2.204,68,-130.6079085,7,43,,,
2.208,69,-100.546439,7,43,,,
2.212,69,-52.00502325,7,43,,,
2.216,69,-70.92913169,7,43,,,
2.22,69,-94.07172931,7,43,,,
2.224,69,-92.834746,7,43,,,
2.228,69,-120.3169409,7,43,,,
2.232,69,-114.7179272,7,43,,,
2.236,69,-74.92424914,7,43,,,
2.24,70,-57.68570579,7,43,,,
2.244,70,-37.84904873,7,43,,,
2.248,70,-9.500651587,7,43,,,
2.252,70,-73.62047492,7,43,,,
2.256,70,-146.3396292,7,43,,,
2.26,70,-32.75678248,7,43,,,
2.264,70,122.6751193,7,43,,,
2.268,70,200.9046124,7,43,,,
2.272,71,229.8053259,7,43,,,
2.276,71,63.46353494,7,43,,,
2.28,71,-135.3481515,7,43,,,
2.284,71,-53.27320617,7,43,,,
2.288,71,86.52008952,7,43,,,
2.292,71,72.05689507,7,43,,,
2.296,71,64.52620833,7,43,,,
2.3,71,22.40554441,7,43,,,
2.304,72,-51.41634293,7,43,,,
2.308,72,40.5796404,7,43,,,
2.312,72,152.707027,7,43,,,
2.316,72,88.67570366,7,43,,,
2.32,72,-13.00833799,7,43,,,
2.324,72,-32.75275592,7,43,,,
2.328,72,-23.23644301,7,43,,,
2.332,72,24.63223411,7,43,,,
2.336,73,72.94157649,7,43,,,
2.34,73,51.89468183,7,43,,,
2.344,73,9.297794082,7,43,,,
2.348,73,-17.08173956,7,43,,,
2.352,73,-15.35422761,7,43,,,
2.356,73,7.881063372,7,43,,,
2.36,73,1.61187388,7,43,,,
2.364,73,-30.40704726,7,43,,,
2.368,74,-33.95178207,7,43,,,
2.372,74,19.60851923,7,43,,,
2.376,74,45.99927198,7,43,,,
2.38,74,-7.471587115,7,43,,,
2.384,74,-46.33214864,7,43,,,
2.388,74,-17.49622297,7,43,,,
2.392,74,42.47384069,7,43,,,
2.396,74,50.1588103,7,43,,,
2.4,75,-19.25008276,7,43,,,
2.404,75,-22.99281577,7,43,,,
2.408,75,43.38369559,7,43,,,
2.412,75,69.0450334,7,43,,,
2.416,75,68.61451866,7,43,,,
2.42,75,14.54358362,7,43,,,
2.424,75,-130.9137571,7,43,,,
2.428,75,-191.5679014,7,43,,,
2.432,76,-31.89346209,7,43,,,
2.436,76,110.563005,7,43,,,
2.44,76,117.4074163,7,43,,,
2.444,76,120.7660408,7,43,,,
2.448,76,103.1387014,7,43,,,
2.452,76,12.05485443,7,43,,,
2.456,76,-38.97860595,7,43,,,
2.46,76,-3.973010072,7,43,,,
2.464,77,12.6265401,7,43,,,
2.468,77,7.958376994,7,43,,,
2.472,77,24.1059321,7,43,,,
2.476,77,26.33956792,7,43,,,
2.48,77,37.97769389,7,43,,,
2.484,77,68.65605164,7,43,,,
2.488,77,96.21929476,7,43,,,
2.492,77,127.1355727,7,43,,,
2.496,78,106.530484,7,43,,,
2.5,78,-19.49887975,7,43,,,
2.504,78,-51.32200232,7,43,,,
2.508,78,116.6001954,7,43,,,
2.512,78,232.4719726,7,43,,,
2.516,78,244.5159963,7,43,,,
2.52,78,228.8880552,7,43,,,
2.524,78,158.6946797,7,43,,,
2.528,79,73.47058441,7,43,,,
2.532,79,26.76798838,7,43,,,
2.536,79,-34.71126671,7,43,,,
2.54,79,-101.0027042,7,43,,,
2.544,79,-91.88400028,7,43,,,
2.548,79,-56.95606084,7,43,,,
2.552,79,13.86500209,7,43,,,
2.556,79,122.8380466,7,43,,,
2.56,80,147.1882908,7,43,,,
2.564,80,135.6797826,7,43,,,
2.568,80,138.4802538,7,43,,,
2.572,80,70.09295758,7,43,,,
2.576,80,11.88678265,7,43,,,
2.58,80,52.2453252,7,43,,,
2.584,80,63.21970563,7,43,,,
2.588,80,42.10330255,7,43,,,
2.592,81,28.58955004,7,43,,,
2.596,81,9.7390953,7,43,,,
2.6,81,54.26374754,7,43,,,
2.604,81,113.6344348,7,43,,,
2.608,81,129.7141585,7,43,,,
2.612,81,104.3195919,7,43,,,
2.616,81,39.9966831,7,43,,,
2.62,81,1.672189107,7,43,,,
2.624,82,36.16607125,7,43,,,
2.628,82,58.07813077,7,43,,,
2.632,82,24.232873,7,43,,,
2.636,82,0.336470154,7,43,,,
2.64,82,-0.517662622,7,43,,,
2.644,82,17.63640166,7,43,,,
2.648,82,68.11112148,7,43,,,
2.652,82,103.4611159,7,43,,,
2.656,83,92.11552906,7,43,,,
2.66,83,37.03621893,7,43,,,
2.664,83,-4.281008308,7,43,,,
2.668,83,-4.717335636,7,43,,,
2.672,83,9.812777113,7,43,,,
2.676,83,35.67719511,7,43,,,
2.68,83,24.02026022,7,43,,,
2.684,83,-56.6229413,7,43,,,
2.688,84,-64.2588669,7,43,,,
2.692,84,68.93733625,7,43,,,
2.696,84,141.9340712,7,43,,,
2.7,84,81.433478,7,43,,,
2.704,84,59.42744287,7,43,,,
2.708,84,119.4770843,7,43,,,
2.712,84,155.677948,7,43,,,
2.716,84,179.1952629,7,43,,,
2.72,85,139.6278674,7,43,,,
2.724,85,3.800632367,7,43,,,
2.728,85,-48.06517407,7,43,,,
2.732,85,59.9231438,7,43,,,
2.736,85,138.9324458,7,43,,,
2.74,85,127.4912513,7,43,,,
2.744,85,103.0837315,7,43,,,
2.748,85,21.5506359,7,43,,,
2.752,86,-78.77846307,7,43,,,
2.756,86,-95.9185882,7,43,,,
2.76,86,-64.13666691,7,43,,,
2.764,86,26.63558263,7,43,,,
2.768,86,187.674004,7,43,,,
2.772,86,276.0298769,7,43,,,
2.776,86,236.54285,7,43,,,
2.78,86,138.441588,7,43,,,
2.784,87,44.39182806,7,43,,,
2.788,87,3.030233552,7,43,,,
2.792,87,-65.15979984,7,43,,,
2.796,87,-71.24085645,7,43,,,
2.8,87,6.63898168,7,43,,,
2.804,87,55.93841969,7,43,,,
2.808,87,102.1306227,7,43,,,
2.812,87,12.60774847,7,43,,,
2.816,88,-145.4610712,7,43,,,
2.82,88,-84.89194662,7,43,,,
2.824,88,52.18228486,7,43,,,
2.828,88,19.1957733,7,43,,,
2.832,88,182.4035423,7,43,,,
2.836,88,255.227913,7,43,,,
2.84,88,-92.2673709,7,43,,,
2.844,88,-7.955972542,7,43,,,
2.848,89,368.8911358,7,43,,,
2.852,89,252.3788839,7,43,,,
2.856,89,230.3828325,7,43,,,
2.86,89,537.2528541,7,43,,,
2.864,89,454.7591349,7,43,,,
2.868,89,138.7902531,7,43,,,
2.872,89,149.8517298,7,43,,,
2.876,89,403.9018672,7,43,,,
2.88,90,581.8256615,7,43,,,
2.884,90,634.7310845,7,43,,,
2.888,90,550.828563,7,43,,,
2.892,90,404.3417027,7,43,,,
2.896,90,419.2068678,7,43,,,
2.9,90,532.2030802,7,43,,,
2.904,90,384.6992555,7,43,,,
2.908,90,115.1583039,7,43,,,
2.912,91,38.38356972,7,43,,,
2.916,91,-14.15030752,7,43,,,
2.92,91,-30.1042052,7,43,,,
2.924,91,46.34628497,7,43,,,
2.928,91,-219.6362444,7,43,,,
2.932,91,-563.6010797,7,43,,,
2.936,91,-311.5516974,7,43,,,
2.94,91,-113.5631416,7,43,,,
2.944,92,-331.3423199,7,43,,,
2.948,92,-443.2275901,7,43,,,
2.952,92,-557.0272871,7,43,,,
2.956,92,-665.2400758,7,43,,,
2.96,92,-593.3866478,7,43,,,
2.964,92,-600.7637209,7,43,,,
2.968,92,-589.0032929,7,43,,,
2.972,92,-260.7482107,7,43,,,
2.976,93,-139.850975,7,43,,,
2.98,93,-453.2978569,7,43,,,
2.984,93,-631.8892597,7,43,,,
2.988,93,-643.8476381,7,43,,,
2.992,93,-462.1596398,7,43,,,
2.996,93,-169.6552464,7,43,,,
3,93,-221.0686493,7,43,,,
3.004,93,-502.786458,7.00013133,43.000197,,,
3.008,94,-719.5240427,6.977344561,42.96601684,,,
3.012,94,-782.210516,7.00546813,43.00820219,,,
3.016,94,-657.4947479,7.393162205,43.58974331,,,
3.02,94,-469.5330847,6.184770873,41.77715631,,,
3.024,94,-453.0628065,2.562300227,36.34345034,,,
3.028,94,-522.5758761,0.638062579,33.45709387,,,
3.032,94,-378.3755461,0.921780254,33.88267038,,,
3.036,94,-365.7586805,1.036924215,34.05538632,,,
3.04,95,-466.4008978,0.998690148,33.99803522,,,
3.044,95,-322.7702771,1,34,,,
3.048,95,-327.7053465,1,34,,,
3.052,95,-284.7719767,1,34,,,
3.056,95,-77.48762205,1,34,,,
3.06,95,-235.5342654,1,34,,,
3.064,95,-414.0212886,1,34,,,
3.068,95,-219.281785,1,34,,,
3.072,96,-83.81328273,1,34,,,
3.076,96,-81.52194859,1,34,,,
3.08,96,-28.53708814,1,34,,,
3.084,96,-158.2191698,1,34,,,
3.088,96,-216.0527481,1,34,,,
3.092,96,-134.4609053,1,34,,,
3.096,96,-179.5440604,1,34,,,
3.1,96,-161.682672,1,34,,,
3.104,97,-71.03250737,1,34,,,
3.108,97,-30.54218687,1,34,,,
3.112,97,-70.60916608,1,34,,,
3.116,97,36.33502576,1,34,,,
3.12,97,133.3750153,1,34,,,
3.124,97,-33.31267424,1,34,,,
3.128,97,-45.74226327,1,34,,,
3.132,97,25.14563684,1,34,,,
3.136,98,12.59778606,1,34,,,
3.14,98,88.14810502,1,34,,,
3.144,98,173.5598295,1,34,,,
3.148,98,213.5217154,1,34,,,
3.152,98,153.5319543,1,34,,,
3.156,98,109.0367573,1,34,,,
3.16,98,240.9662529,1,34,,,
3.164,98,337.5321068,1,34,,,
3.168,99,211.4847891,1,34,,,
3.172,99,-27.44555564,1,34,,,
3.176,99,-47.74877947,1,34,,,
3.18,99,121.7059064,1,34,,,
3.184,99,231.3374278,1,34,,,
3.188,99,476.7720027,1,34,,,
3.192,99,629.4745949,1,34,,,
3.196,99,336.5892889,1,34,,,
3.2,100,37.39248663,1,34,,,
3.204,100,103.8425216,1,34,,,
3.208,100,344.8755964,1,34,,,
3.212,100,494.15281,1,34,,,
3.216,100,569.6348187,1,34,,,
3.22,100,461.4897674,1,34,,,
3.224,100,173.4999501,1,34,,,
3.228,100,100.7311022,1,34,,,
3.232,101,257.6875999,1,34,,,
3.236,101,322.299894,1,34,,,
3.24,101,336.7871224,1,34,,,
3.244,101,400.2912289,1,34,,,
3.248,101,423.6485411,1,34,,,
3.252,101,336.1442355,1,34,,,
3.256,101,137.1956571,1,34,,,
3.26,101,132.7966399,1,34,,,
3.264,102,386.1156052,1,34,,,
3.268,102,420.6478811,1,34,,,
3.272,102,370.4569553,1,34,,,
3.276,102,455.4425625,1,34,,,
3.28,102,387.8084182,1,34,,,
3.284,102,288.8483266,1,34,,,
3.288,102,124.7299577,1,34,,,
3.292,102,-27.75073485,1,34,,,
3.296,103,146.0286057,1,34,,,
3.3,103,409.5556312,1,34,,,
3.304,103,482.0244778,1,34,,,
3.308,103,359.9413186,1,34,,,
3.312,103,242.5900826,1,34,,,
3.316,103,330.1511353,1,34,,,
3.32,103,558.48848,1,34,,,
3.324,103,553.3447397,1,34,,,
3.328,104,316.6777976,1,34,,,
3.332,104,105.6480759,1,34,,,
3.336,104,20.8510697,1,34,,,
3.34,104,259.9682712,1,34,,,
3.344,104,462.3965714,1,34,,,
3.348,104,276.828788,1,34,,,
3.352,104,135.3925599,1,34,,,
3.356,104,160.157557,1,34,,,
3.36,105,220.9526617,1,34,,,
3.364,105,312.1101273,1,34,,,
3.368,105,321.1426822,1,34,,,
3.372,105,294.8528089,1,34,,,
3.376,105,346.3100766,1,34,,,
3.38,105,387.5702854,1,34,,,
3.384,105,337.0390648,1,34,,,
3.388,105,231.9411005,1,34,,,
3.392,106,152.0585157,1,34,,,
3.396,106,178.764193,1,34,,,
3.4,106,182.0853012,1,34,,,
3.404,106,167.9420655,1,34,,,
3.408,106,308.7516028,1,34,,,
3.412,106,317.0464801,1,34,,,
3.416,106,174.7840839,1,34,,,
3.42,106,257.9544678,1,34,,,
3.424,107,310.7384259,1,34,,,
3.428,107,163.7585709,1,34,,,
3.432,107,106.2085813,1,34,,,
3.436,107,198.6398996,1,34,,,
3.44,107,232.3750067,1,34,,,
3.444,107,62.28383479,1,34,,,
3.448,107,60.25839639,1,34,,,
3.452,107,236.8350096,1,34,,,
3.456,108,250.8001753,1,34,,,
3.46,108,341.8926735,1,34,,,
3.464,108,360.004854,1,34,,,
3.468,108,148.2546446,1,34,,,
3.472,108,2.717785183,1,34,,,
3.476,108,3.375586404,1,34,,,
3.48,108,184.035326,1,34,,,
3.484,108,338.1395255,1,34,,,
3.488,109,265.2203927,1,34,,,
3.492,109,136.5177796,1,34,,,
3.496,109,46.07426544,1,34,,,
3.5,109,-7.612539227,1,34,,,
3.504,109,108.4318134,1,34,,,
3.508,109,283.2967302,1,34,,,
3.512,109,244.2997646,1,34,,,
3.516,109,129.8747518,1,34,,,
3.52,110,101.110677,1,34,,,
3.524,110,25.88916794,1,34,,,
3.528,110,-63.93931977,1,34,,,
3.532,110,54.12075814,1,34,,,
3.536,110,256.4888905,1,34,,,
3.54,110,273.8913831,1,34,,,
3.544,110,224.1376537,1,34,,,
3.548,110,107.8365481,1,34,,,
3.552,111,-127.5675248,1,34,,,
3.556,111,-76.70864916,1,34,,,
3.56,111,172.477567,1,34,,,
3.564,111,138.5532007,1,34,,,
3.568,111,122.9325203,1,34,,,
3.572,111,197.1155428,1,34,,,
3.576,111,82.90445423,1,34,,,
3.58,111,7.607765383,1,34,,,
3.584,112,100.1912088,1,34,,,
3.588,112,160.9217664,1,34,,,
3.592,112,110.2096774,1,34,,,
3.596,112,92.83765901,1,34,,,
3.6,112,94.93610127,1,34,,,
3.604,112,-50.80073528,1,34,,,
3.608,112,-129.7261613,1,34,,,
3.612,112,65.1462455,1,34,,,
3.616,113,229.6013866,1,34,,,
3.62,113,275.4778763,1,34,,,
3.624,113,313.7323369,1,34,,,
3.628,113,194.7579999,1,34,,,
3.632,113,10.85178269,1,34,,,
3.636,113,19.44742888,1,34,,,
3.64,113,-0.306140925,1,34,,,
3.644,113,-55.48201912,1,34,,,
3.648,114,71.40903891,1,34,,,
3.652,114,73.80743617,1,34,,,
3.656,114,-7.418246504,1,34,,,
3.66,114,157.7127308,1,34,,,
3.664,114,237.57716,1,34,,,
3.668,114,65.29407369,1,34,,,
3.672,114,-61.4887851,1,34,,,
3.676,114,14.4076225,1,34,,,
3.68,115,133.6549321,1,34,,,
3.684,115,130.0079416,1,34,,,
3.688,115,23.50237378,1,34,,,
3.692,115,-70.65821708,1,34,,,
3.696,115,-92.80808688,1,34,,,
3.7,115,-12.8321968,1,34,,,
3.704,115,178.8465748,1,34,,,
3.708,115,261.9073567,1,34,,,
3.712,116,160.4853716,1,34,,,
3.716,116,26.74033427,1,34,,,
3.72,116,-50.95404719,1,34,,,
3.724,116,-31.77033627,1,34,,,
3.728,116,-36.38587033,1,34,,,
3.732,116,-113.4479029,1,34,,,
3.736,116,22.76540249,1,34,,,
3.74,116,188.5065566,1,34,,,
3.744,117,160.858005,1,34,,,
3.748,117,88.28123441,1,34,,,
3.752,117,51.38414438,1,34,,,
3.756,117,-5.792573038,1,34,,,
3.76,117,-92.3658333,1,34,,,
3.764,117,-51.06664163,1,34,,,
3.768,117,-1.362805972,1,34,,,
3.772,117,9.481372389,1,34,,,
3.776,118,71.9765013,1,34,,,
3.78,118,85.25235181,1,34,,,
3.784,118,122.7144961,1,34,,,
3.788,118,147.6467968,1,34,,,
3.792,118,73.42305995,1,34,,,
3.796,118,88.02550611,1,34,,,
3.8,118,10.0930175,1,34,,,
3.804,118,-199.1848945,1,34,,,
3.808,119,-122.5001456,1,34,,,
3.812,119,93.62700452,1,34,,,
3.816,119,154.9666545,1,34,,,
3.82,119,149.6890037,1,34,,,
3.824,119,121.7928116,1,34,,,
3.828,119,34.95605669,1,34,,,
3.832,119,-48.97203646,1,34,,,
3.836,119,43.01752163,1,34,,,
3.84,120,158.3545309,1,34,,,
3.844,120,111.2618286,1,34,,,
3.848,120,128.1124689,1,34,,,
3.852,120,95.25592939,1,34,,,
3.856,120,-180.9487955,1,34,,,
3.86,120,-309.9535987,1,34,,,
3.864,120,-116.7011505,1,34,,,
3.868,120,151.6267911,1,34,,,
3.872,121,307.0198352,1,34,,,
3.876,121,235.6805791,1,34,,,
3.88,121,60.28405741,1,34,,,
3.884,121,-22.76867691,1,34,,,
3.888,121,-119.45994,1,34,,,
3.892,121,-170.6729081,1,34,,,
3.896,121,-80.46300029,1,34,,,
3.9,121,56.52343839,1,34,,,
3.904,122,207.4845909,1,34,,,
3.908,122,244.2516175,1,34,,,
3.912,122,165.8348671,1,34,,,
3.916,122,25.07143172,1,34,,,
3.92,122,-104.4307488,1,34,,,
3.924,122,-123.9122389,1,34,,,
3.928,122,-73.6408962,1,34,,,
3.932,122,18.74051329,1,34,,,
3.936,123,60.26069015,1,34,,,
3.94,123,109.413394,1,34,,,
3.944,123,171.1269125,1,34,,,
3.948,123,76.4518173,1,34,,,
3.952,123,-32.54990837,1,34,,,
3.956,123,-80.70091705,1,34,,,
3.96,123,-55.71587064,1,34,,,
3.964,123,132.8020275,1,34,,,
3.968,124,249.9414109,1,34,,,
3.972,124,175.2156365,1,34,,,
3.976,124,70.78353982,1,34,,,
3.98,124,-16.06314608,1,34,,,
3.984,124,-43.9912804,1,34,,,
3.988,124,17.5112087,1,34,,,
3.992,124,62.62398041,1,34,,,
3.996,124,71.15289991,1,34,,,
4,125,100.3108693,1,34,,,
4.004,125,120.4693871,1,33.99993433,,,
4.008,125,56.14949258,1,34.01132772,,,
4.012,125,2.724013103,1,33.99726594,,,
4.016,125,46.89871533,1,33.8034189,,,
4.02,125,35.45334832,1,34.40761456,,,
4.024,125,7.06328128,1,36.21884989,,,
4.028,125,38.29072538,1,37.18096871,,,
4.032,126,-84.70019413,1,37.03910987,,,
4.036,126,-94.81700339,1,36.98153789,,,
4.04,126,132.1844339,1,37.00065493,,,
4.044,126,186.5653827,1,37,,,
4.048,126,136.2405348,1,37,,,
4.052,126,78.19493303,1,37,,,
4.056,126,-52.33622208,1,37,,,
4.06,126,-157.5018799,1,37,,,
4.064,127,-85.76153361,1,37,,,
4.068,127,57.99276546,1,37,,,
4.072,127,28.17472596,1,37,,,
4.076,127,16.82255833,1,37,,,
4.08,127,132.8277917,1,37,,,
4.084,127,110.4230569,1,37,,,
4.088,127,77.15685534,1,37,,,
4.092,127,108.0643466,1,37,,,
4.096,128,-57.55762217,1,37,,,
4.1,128,-242.8249408,1,37,,,
4.104,128,-136.5385976,1,37,,,
4.108,128,104.0860286,1,37,,,
4.112,128,245.2334518,1,37,,,
4.116,128,242.090732,1,37,,,
4.12,128,112.324795,1,37,,,
4.124,128,-91.32593248,1,37,,,
4.128,129,-238.5963122,1,37,,,
4.132,129,-167.1336172,1,37,,,
4.136,129,69.14742794,1,37,,,
4.14,129,149.5017244,1,37,,,
4.144,129,115.8833342,1,37,,,
4.148,129,102.7541893,1,37,,,
4.152,129,7.548026943,1,37,,,
4.156,129,-35.17864758,1,37,,,
4.16,130,33.68611322,1,37,,,
4.164,130,14.20319338,1,37,,,
4.168,130,-89.43563109,1,37,,,
4.172,130,-70.89937728,1,37,,,
4.176,130,31.11249611,1,37,,,
4.18,130,78.2881902,1,37,,,
4.184,130,57.31071221,1,37,,,
4.188,130,12.98484763,1,37,,,
4.192,131,-9.343452834,1,37,,,
4.196,131,31.6631513,1,37,,,
4.2,131,153.9332888,1,37,,,
4.204,131,173.0756889,1,37,,,
4.208,131,70.05455034,1,37,,,
4.212,131,26.31152636,1,37,,,
4.216,131,17.85438646,1,37,,,
4.22,131,69.88226487,1,37,,,
4.224,132,119.0447878,1,37,,,
4.228,132,3.363415674,1,37,,,
4.232,132,-49.09073602,1,37,,,
4.236,132,83.11219213,1,37,,,
4.24,132,108.5617325,1,37,,,
4.244,132,57.31507473,1,37,,,
4.248,132,-9.427642065,1,37,,,
4.252,132,-125.1182172,1,37,,,
4.256,133,-77.22193159,1,37,,,
4.26,133,-2.01114365,1,37,,,
4.264,133,-2.100962584,1,37,,,
4.268,133,60.48242107,1,37,,,
4.272,133,66.78519844,1,37,,,
4.276,133,41.625532,1,37,,,
4.28,133,21.90928212,1,37,,,
4.284,133,-90.08683332,1,37,,,
4.288,134,-136.4070968,1,37,,,
4.292,134,-4.836302175,1,37,,,
4.296,134,134.5314595,1,37,,,
4.3,134,191.6488644,1,37,,,
4.304,134,149.0008128,1,37,,,
4.308,134,10.78250952,1,37,,,
4.312,134,-67.82713072,1,37,,,
4.316,134,-35.93042623,1,37,,,
4.32,135,62.99469697,1,37,,,
4.324,135,58.46023097,1,37,,,
4.328,135,-82.17490342,1,37,,,
4.332,135,-55.97190355,1,37,,,
4.336,135,49.66685573,1,37,,,
4.34,135,15.75595751,1,37,,,
4.344,135,73.08834082,1,37,,,
4.348,135,163.9537296,1,37,,,
4.352,136,74.88667676,1,37,,,
4.356,136,34.99163176,1,37,,,
4.36,136,59.34558219,1,37,,,
4.364,136,-24.13700994,1,37,,,
4.368,136,-60.74140065,1,37,,,
4.372,136,12.21799518,1,37,,,
4.376,136,110.354667,1,37,,,
4.38,136,184.9250413,1,37,,,
4.384,137,154.3884511,1,37,,,
4.388,137,84.28578351,1,37,,,
4.392,137,34.55904934,1,37,,,
4.396,137,-51.27013109,1,37,,,
4.4,137,-129.2519547,1,37,,,
4.404,137,-5.746441438,1,37,,,
4.408,137,171.0541963,1,37,,,
4.412,137,159.3909327,1,37,,,
4.416,138,101.8913471,1,37,,,
4.42,138,52.38719375,1,37,,,
4.424,138,-28.6525422,1,37,,,
4.428,138,-50.26567754,1,37,,,
4.432,138,-21.90469088,1,37,,,
4.436,138,15.17019609,1,37,,,
4.44,138,111.7818267,1,37,,,
4.444,138,179.2041815,1,37,,,
4.448,139,174.8302093,1,37,,,
4.452,139,161.1439941,1,37,,,
4.456,139,27.49097056,1,37,,,
4.46,139,-118.3510044,1,37,,,
4.464,139,-25.71823437,1,37,,,
4.468,139,122.1231873,1,37,,,
4.472,139,119.1047281,1,37,,,
4.476,139,43.75475182,1,37,,,
4.48,140,80.8563406,1,37,,,
4.484,140,173.1500913,1,37,,,
4.488,140,126.8335262,1,37,,,
4.492,140,-33.76799283,1,37,,,
4.496,140,-49.39024251,1,37,,,
4.5,140,77.13174491,1,37,,,
4.504,140,10.73069205,1,37,,,
4.508,140,-17.13012534,1,37,,,
4.512,141,138.6158666,1,37,,,
4.516,141,55.74269023,1,37,,,
4.52,141,-78.77988076,1,37,,,
4.524,141,28.33626247,1,37,,,
4.528,141,98.00375179,1,37,,,
4.532,141,33.67647634,1,37,,,
4.536,141,54.35101036,1,37,,,
4.54,141,78.43380083,1,37,,,
4.544,142,15.22253628,1,37,,,
4.548,142,43.57766053,1,37,,,
4.552,142,33.70011845,1,37,,,
4.556,142,25.14457997,1,37,,,
4.56,142,68.11811116,1,37,,,
4.564,142,-6.114065303,1,37,,,
4.568,142,12.81917155,1,37,,,
4.572,142,84.00405328,1,37,,,
4.576,143,24.94898741,1,37,,,
4.58,143,53.62448196,1,37,,,
4.584,143,22.49240306,1,37,,,
4.588,143,-114.3373861,1,37,,,
4.592,143,-20.59093737,1,37,,,
4.596,143,117.3158811,1,37,,,
4.6,143,104.5279172,1,37,,,
4.604,143,96.98004128,1,37,,,
4.608,144,20.95788627,1,37,,,
4.612,144,-115.2642101,1,37,,,
4.616,144,-48.10963255,1,37,,,
4.62,144,7.960711287,1,37,,,
4.624,144,-29.26715009,1,37,,,
4.628,144,103.3562046,1,37,,,
4.632,144,168.1401473,1,37,,,
4.636,144,133.0189791,1,37,,,
4.64,145,141.4362744,1,37,,,
4.644,145,-9.693667621,1,37,,,
4.648,145,-176.8657723,1,37,,,
4.652,145,-106.1342316,1,37,,,
4.656,145,37.76141941,1,37,,,
4.66,145,86.74076196,1,37,,,
4.664,145,59.79328575,1,37,,,
4.668,145,82.24304141,1,37,,,
4.672,146,115.6843543,1,37,,,
4.676,146,55.69333186,1,37,,,
4.68,146,-24.33263012,1,37,,,
4.684,146,-113.3954362,1,37,,,
4.688,146,-7.377077021,1,37,,,
4.692,146,179.1112813,1,37,,,
4.696,146,96.52419507,1,37,,,
4.7,146,4.556623464,1,37,,,
4.704,147,23.64795488,1,37,,,
4.708,147,-26.8646356,1,37,,,
4.712,147,-20.11310503,1,37,,,
4.716,147,75.53138608,1,37,,,
4.72,147,12.29838669,1,37,,,
4.724,147,-75.19423407,1,37,,,
4.728,147,4.182061462,1,37,,,
4.732,147,48.30658447,1,37,,,
4.736,148,51.74009257,1,37,,,
4.74,148,13.30247328,1,37,,,
4.744,148,-73.93097127,1,37,,,
4.748,148,4.22373253,1,37,,,
4.752,148,72.37345533,1,37,,,
4.756,148,21.33374115,1,37,,,
4.76,148,54.97269665,1,37,,,
4.764,148,95.13624681,1,37,,,
4.768,149,55.14847611,1,37,,,
4.772,149,64.17675868,1,37,,,
4.776,149,9.327812055,1,37,,,
4.78,149,-93.5929115,1,37,,,
4.784,149,-62.72172782,1,37,,,
4.788,149,22.77317203,1,37,,,
4.792,149,114.4247918,1,37,,,
4.796,149,183.1974954,1,37,,,
4.8,150,140.3915605,1,37,,,
4.804,150,20.98035537,1,37,,,
4.808,150,-67.61070179,1,37,,,
4.812,150,-62.5439848,1,37,,,
4.816,150,-7.511075542,1,37,,,
4.82,150,6.088456352,1,37,,,
4.824,150,38.43998102,1,37,,,
4.828,150,136.3184612,1,37,,,
4.832,151,133.9473272,1,37,,,
4.836,151,-1.771497626,1,37,,,
4.84,151,-78.04877407,1,37,,,
4.844,151,-80.25551948,1,37,,,
4.848,151,-14.66353451,1,37,,,
4.852,151,125.918994,1,37,,,
4.856,151,178.683065,1,37,,,
4.86,151,100.2336807,1,37,,,
4.864,152,22.15371865,1,37,,,
4.868,152,-32.38776068,1,37,,,
4.872,152,-59.03806314,1,37,,,
4.876,152,5.926543072,1,37,,,
4.88,152,46.27851083,1,37,,,
4.884,152,24.93900287,1,37,,,
4.888,152,86.67476082,1,37,,,
4.892,152,103.2656539,1,37,,,
4.896,153,29.29532253,1,37,,,
4.9,153,41.69007346,1,37,,,
4.904,153,7.609325063,1,37,,,
4.908,153,-112.7038852,1,37,,,
4.912,153,-1.380547707,1,37,,,
4.916,153,186.3336654,1,37,,,
4.92,153,159.0603157,1,37,,,
4.924,153,69.28405775,1,37,,,
4.928,154,9.737424966,1,37,,,
4.932,154,-19.34423924,1,37,,,
4.936,154,-53.05766866,1,37,,,
4.94,154,-23.453512,1,37,,,
4.944,154,76.71575618,1,37,,,
4.948,154,64.15770247,1,37,,,
4.952,154,6.750073168,1,37,,,
4.956,154,103.550699,1,37,,,
4.96,155,166.1210866,1,37,,,
4.964,155,50.83286037,1,37,,,
4.968,155,17.94041792,1,37,,,
4.972,155,81.46866631,1,37,,,
4.976,155,25.03657274,1,37,,,
4.98,155,-98.97514148,1,37,,,
4.984,155,-28.70054677,1,37,,,
4.988,155,113.3263435,1,37,,,
4.992,156,35.21034731,1,37,,,
4.996,156,21.22121609,1,37,,,
5,156,158.5335771,1,37,,,
5.004,156,190.8657605,0.999956223,36.99991245,,,
5.008,156,191.0022017,1.007551813,37.01510363,,,
5.012,156,-12.29731302,0.99817729,36.99635458,,,
5.016,156,-254.9510664,0.868945932,36.73789186,,,
5.02,156,-46.25498672,1.271743042,37.54348608,,,
5.024,157,179.3706584,2.479233258,39.95846652,,,
5.028,157,222.3172319,3.120645807,41.24129161,,,
5.032,157,287.7832201,3.026073249,41.0521465,,,
5.036,157,175.5032167,2.987691928,40.97538386,,,
5.04,157,-24.29914855,3.000436617,41.00087323,,,
5.044,157,-108.9469659,3,41,,,
5.048,157,-32.19047704,3,41,,,
5.052,157,41.06308183,3,41,,,
5.056,158,55.38750117,3,41,,,
5.06,158,164.500065,3,41,,,
5.064,158,195.7344707,3,41,,,
5.068,158,25.6010999,3,41,,,
5.072,158,-184.8116476,3,41,,,
5.076,158,-303.1904701,3,41,,,
5.08,158,-195.168463,3,41,,,
5.084,158,101.1396285,3,41,,,
5.088,159,276.179,3,41,,,
5.092,159,269.805045,3,41,,,
5.096,159,157.2060198,3,41,,,
5.1,159,-56.78112179,3,41,,,
5.104,159,-273.9107321,3,41,,,
5.108,159,-263.8461657,3,41,,,
5.112,159,-36.27130916,3,41,,,
5.116,159,104.3002749,3,41,,,
5.12,160,184.9233705,3,41,,,
5.124,160,238.9895911,3,41,,,
5.128,160,67.52126302,3,41,,,
5.132,160,-122.2383726,3,41,,,
5.136,160,-97.23565485,3,41,,,
5.14,160,55.88768643,3,41,,,
5.144,160,198.7656663,3,41,,,
5.148,160,149.9738875,3,41,,,
5.152,161,-62.5417457,3,41,,,
5.156,161,-105.8331182,3,41,,,
5.16,161,85.63096126,3,41,,,
5.164,161,156.0120526,3,41,,,
5.168,161,67.76641672,3,41,,,
5.172,161,82.49315646,3,41,,,
5.176,161,80.61874666,3,41,,,
5.18,161,-6.956897587,3,41,,,
5.184,162,-49.34661895,3,41,,,
5.188,162,-42.7906813,3,41,,,
5.192,162,39.67829482,3,41,,,
5.196,162,137.6065962,3,41,,,
5.2,162,175.1147503,3,41,,,
5.204,162,99.00657161,3,41,,,
5.208,162,-57.86340936,3,41,,,
5.212,162,-79.19085482,3,41,,,
5.216,163,32.17848868,3,41,,,
5.22,163,71.77184663,3,41,,,
5.224,163,71.30597687,3,41,,,
5.228,163,80.26999014,3,41,,,
5.232,163,105.9417781,3,41,,,
5.236,163,99.52613361,3,41,,,
5.24,163,49.15824345,3,41,,,
5.244,163,15.67261885,3,41,,,
5.248,164,-18.06020914,3,41,,,
5.252,164,-27.28536502,3,41,,,
5.256,164,5.53284781,3,41,,,
5.26,164,47.50846036,3,41,,,
5.264,164,84.81666865,3,41,,,
5.268,164,159.4564441,3,41,,,
5.272,164,138.1853327,3,41,,,
5.276,164,-17.13529744,3,41,,,
5.28,165,-34.79785049,3,41,,,
5.284,165,108.7360709,3,41,,,
5.288,165,196.9550921,3,41,,,
5.292,165,117.3244528,3,41,,,
5.296,165,41.40965149,3,41,,,
5.3,165,65.24219632,3,41,,,
5.304,165,2.273761041,3,41,,,
5.308,165,30.99287903,3,41,,,
5.312,166,163.2599781,3,41,,,
5.316,166,57.72476159,3,41,,,
5.32,166,8.406322449,3,41,,,
5.324,166,165.6876616,3,41,,,
5.328,166,90.59172691,3,41,,,
5.332,166,-89.39742374,3,41,,,
5.336,166,3.454274037,3,41,,,
5.34,166,169.5308367,3,41,,,
5.344,167,110.5909877,3,41,,,
5.348,167,27.0514933,3,41,,,
5.352,167,-2.891095875,3,41,,,
5.356,167,-51.6620663,3,41,,,
5.36,167,9.360488459,3,41,,,
5.364,167,93.80046195,3,41,,,
5.368,167,88.63281221,3,41,,,
5.372,167,65.47807703,3,41,,,
5.376,168,81.1707625,3,41,,,
5.38,168,101.8414912,3,41,,,
5.384,168,37.72329121,3,41,,,
5.388,168,-85.68491931,3,41,,,
5.392,168,-156.6973029,3,41,,,
5.396,168,-149.2591319,3,41,,,
5.4,168,20.8852097,3,41,,,
5.404,168,189.295049,3,41,,,
5.408,169,161.3281265,3,41,,,
5.412,169,163.5908244,3,41,,,
5.416,169,114.0308949,3,41,,,
5.42,169,-32.71250266,3,41,,,
5.424,169,-8.475786491,3,41,,,
5.428,169,-64.42069005,3,41,,,
5.432,169,-119.6668231,3,41,,,
5.436,169,61.35962664,3,41,,,
5.44,170,129.3505541,3,41,,,
5.444,170,69.21182591,3,41,,,
5.448,170,70.29260412,3,41,,,
5.452,170,75.19853193,3,41,,,
5.456,170,41.88971522,3,41,,,
5.46,170,10.7584149,3,41,,,
5.464,170,-21.34388347,3,41,,,
5.468,170,12.27341331,3,41,,,
5.472,171,59.95251931,3,41,,,
5.476,171,54.43229975,3,41,,,
5.48,171,104.1274848,3,41,,,
5.484,171,89.69153606,3,41,,,
5.488,171,1.075436107,3,41,,,
5.492,171,25.77045057,3,41,,,
5.496,171,37.52444117,3,41,,,
5.5,171,-26.28844089,3,41,,,
5.504,172,-52.2831293,3,41,,,
5.508,172,19.30180896,3,41,,,
5.512,172,40.5698203,3,41,,,
5.516,172,-25.5908639,3,41,,,
5.52,172,66.92346132,3,41,,,
5.524,172,135.8180519,3,41,,,
5.528,172,42.37979058,3,41,,,
5.532,172,41.16144207,3,41,,,
5.536,173,31.13103401,3,41,,,
5.54,173,4.34861726,3,41,,,
5.544,173,101.2570798,3,41,,,
5.548,173,133.706709,3,41,,,
5.552,173,52.12277884,3,41,,,
5.556,173,-40.52509388,3,41,,,
5.56,173,-64.51436566,3,41,,,
5.564,173,115.9739473,3,41,,,
5.568,174,259.9769759,3,41,,,
5.572,174,200.6815765,3,41,,,
5.576,174,126.9166738,3,41,,,
5.58,174,21.22119084,3,41,,,
5.584,174,-28.28442712,3,41,,,
5.588,174,-4.513488782,3,41,,,
5.592,174,-9.818281393,3,41,,,
5.596,174,19.63918262,3,41,,,
5.6,175,36.57281033,3,41,,,
5.604,175,50.20704928,3,41,,,
5.608,175,126.6834755,3,41,,,
5.612,175,104.7029623,3,41,,,
5.616,175,7.979662054,3,41,,,
5.62,175,-0.140005939,3,41,,,
5.624,175,70.16780106,3,41,,,
5.628,175,79.24836586,3,41,,,
5.632,176,6.608477532,3,41,,,
5.636,176,-55.20471233,3,41,,,
5.64,176,-31.9881181,3,41,,,
5.644,176,16.37845729,3,41,,,
5.648,176,29.22467443,3,41,,,
5.652,176,81.52946688,3,41,,,
5.656,176,107.8665605,3,41,,,
5.66,176,1.171439841,3,41,,,
5.664,177,-136.8639974,3,41,,,
5.668,177,1.53352229,3,41,,,
5.672,177,173.0289324,3,41,,,
5.676,177,105.9454462,3,41,,,
5.68,177,90.47901053,3,41,,,
5.684,177,125.408782,3,41,,,
5.688,177,46.24699344,3,41,,,
5.692,177,7.156908488,3,41,,,
5.696,178,120.5082632,3,41,,,
5.7,178,188.6093686,3,41,,,
5.704,178,74.19553094,3,41,,,
5.708,178,-16.04684429,3,41,,,
5.712,178,34.78832705,3,41,,,
5.716,178,92.46551371,3,41,,,
5.72,178,138.9298479,3,41,,,
5.724,178,110.3347382,3,41,,,
5.728,179,72.11347091,3,41,,,
5.732,179,86.37532952,3,41,,,
5.736,179,-25.08143615,3,41,,,
5.74,179,-108.4004201,3,41,,,
5.744,179,-33.53211626,3,41,,,
5.748,179,56.47409631,3,41,,,
5.752,179,148.0799721,3,41,,,
5.756,179,123.7769655,3,41,,,
5.76,180,12.53369992,3,41,,,
5.764,180,-74.29633756,3,41,,,
5.768,180,-142.6684018,3,41,,,
5.772,180,-7.761425676,3,41,,,
5.776,180,85.01439572,3,41,,,
5.78,180,-22.05594139,3,41,,,
5.784,180,27.19412088,3,41,,,
5.788,180,74.84209781,3,41,,,
5.792,181,-61.82770004,3,41,,,
5.796,181,-77.25352743,3,41,,,
5.8,181,56.23596137,3,41,,,
5.804,181,96.68437455,3,41,,,
5.808,181,134.5435624,3,41,,,
5.812,181,212.0618595,3,41,,,
5.816,181,69.46051539,3,41,,,
5.82,181,-151.1358531,3,41,,,
5.824,182,-77.56717676,3,41,,,
5.828,182,84.01521244,3,41,,,
5.832,182,36.56290028,3,41,,,
5.836,182,60.10697169,3,41,,,
5.84,182,87.31907549,3,41,,,
5.844,182,-57.9522226,3,41,,,
5.848,182,-3.798788813,3,41,,,
5.852,182,216.873388,3,41,,,
5.856,183,311.0826771,3,41,,,
5.86,183,233.4939337,3,41,,,
5.864,183,64.58261436,3,41,,,
5.868,183,-43.69944431,3,41,,,
5.872,183,-43.33091447,3,41,,,
5.876,183,-51.10762836,3,41,,,
5.88,183,-39.58467571,3,41,,,
5.884,183,48.35488093,3,41,,,
5.888,184,-43.19283185,3,41,,,
5.892,184,-133.7118385,3,41,,,
5.896,184,38.78001108,3,41,,,
5.9,184,123.0444279,3,41,,,
5.904,184,73.0778847,3,41,,,
5.908,184,262.8247019,3,41,,,
5.912,184,489.6848919,3,41,,,
5.916,184,318.8274784,3,41,,,
5.92,185,-35.28080741,3,41,,,
5.924,185,-200.0645111,3,41,,,
5.928,185,-263.0514768,3,41,,,
5.932,185,-141.2126626,3,41,,,
5.936,185,213.3447122,3,41,,,
5.94,185,312.9163646,3,41,,,
5.944,185,181.6179761,3,41,,,
5.948,185,115.98716,3,41,,,
5.952,186,82.43147761,3,41,,,
5.956,186,71.97382722,3,41,,,
5.96,186,169.1960521,3,41,,,
5.964,186,229.6981758,3,41,,,
5.968,186,187.6952668,3,41,,,
5.972,186,254.1659267,3,41,,,
5.976,186,305.998115,3,41,,,
5.98,186,231.4986444,3,41,,,
5.984,187,234.9665859,3,41,,,
5.988,187,235.6174779,3,41,,,
5.992,187,224.948931,3,41,,,
5.996,187,152.4020341,3,41,,,
6,187,-149.2839916,3,41,,,
6.004,187,-254.7148774,3.000043777,40.999803,,,
6.008,187,-24.33674912,2.992448187,41.03398316,,,
6.012,187,168.1461754,3.00182271,40.99179781,,,
6.016,188,240.1675723,3.131054068,40.41025669,,,
6.02,188,244.8761135,2.728256958,42.22284369,,,
6.024,188,66.24346416,1.520766742,47.65654966,,,
6.028,188,-62.21370058,0.879354193,50.54290613,,,
6.032,188,144.7200868,0.973926751,50.11732962,,,
6.036,188,359.170314,1.012308072,49.94461368,,,
6.04,188,411.9007024,0.999563383,50.00196478,,,
6.044,188,354.6371114,1,50,,,
6.048,189,173.2936641,1,50,,,
6.052,189,-43.35492997,1,50,,,
6.056,189,-23.64949476,1,50,,,
6.06,189,95.42575798,1,50,,,
6.064,189,104.6903252,1,50,,,
6.068,189,183.2868287,1,50,,,
6.072,189,78.67149778,1,50,,,
6.076,189,-70.30558319,1,50,,,
6.08,190,78.80685371,1,50,,,
6.084,190,208.9130488,1,50,,,
6.088,190,162.8983803,1,50,,,
6.092,190,73.67904757,1,50,,,
6.096,190,-16.75429167,1,50,,,
6.1,190,-175.6169594,1,50,,,
6.104,190,-208.8188474,1,50,,,
6.108,190,-100.6764237,1,50,,,
6.112,191,-73.76372853,1,50,,,
6.116,191,-21.82400893,1,50,,,
6.12,191,41.06634044,1,50,,,
6.124,191,61.69878753,1,50,,,
6.128,191,137.6229042,1,50,,,
6.132,191,243.4690956,1,50,,,
6.136,191,280.2691001,1,50,,,
6.14,191,152.300259,1,50,,,
6.144,192,-12.04731107,1,50,,,
6.148,192,-28.83669372,1,50,,,
6.152,192,63.23631264,1,50,,,
6.156,192,70.94805056,1,50,,,
6.16,192,-10.31190613,1,50,,,
6.164,192,2.599038313,1,50,,,
6.168,192,90.32691084,1,50,,,
6.172,192,220.1624135,1,50,,,
6.176,193,131.020746,1,50,,,
6.18,193,-122.146689,1,50,,,
6.184,193,-35.36171474,1,50,,,
6.188,193,132.6055682,1,50,,,
6.192,193,115.1494073,1,50,,,
6.196,193,94.80389429,1,50,,,
6.2,193,49.3694571,1,50,,,
6.204,193,-50.37159025,1,50,,,
6.208,194,-16.63687049,1,50,,,
6.212,194,146.9103964,1,50,,,
6.216,194,117.4357074,1,50,,,
6.22,194,75.02044715,1,50,,,
6.224,194,186.8850876,1,50,,,
6.228,194,121.394177,1,50,,,
6.232,194,17.88686503,1,50,,,
6.236,194,163.1554364,1,50,,,
6.24,195,321.4375208,1,50,,,
6.244,195,353.1390375,1,50,,,
6.248,195,242.2234813,1,50,,,
6.252,195,41.95631037,1,50,,,
6.256,195,-34.49010126,1,50,,,
6.26,195,63.86148307,1,50,,,
6.264,195,297.6595882,1,50,,,
6.268,195,363.1287538,1,50,,,
6.272,196,207.8237126,1,50,,,
6.276,196,198.4173166,1,50,,,
6.28,196,275.7715396,1,50,,,
6.284,196,177.2531308,1,50,,,
6.288,196,71.8133056,1,50,,,
6.292,196,198.4039324,1,50,,,
6.296,196,307.9016918,1,50,,,
6.3,196,234.4595016,1,50,,,
6.304,197,126.6377691,1,50,,,
6.308,197,91.51616855,1,50,,,
6.312,197,165.6759264,1,50,,,
6.316,197,243.4404862,1,50,,,
6.32,197,204.6742562,1,50,,,
6.324,197,44.94634223,1,50,,,
6.328,197,72.01349588,1,50,,,
6.332,197,244.2272593,1,50,,,
6.336,198,283.413125,1,50,,,
6.34,198,334.7847608,1,50,,,
6.344,198,331.1303936,1,50,,,
6.348,198,222.9976328,1,50,,,
6.352,198,154.8571466,1,50,,,
6.356,198,91.41710663,1,50,,,
6.36,198,50.75470866,1,50,,,
6.364,198,66.31865196,1,50,,,
6.368,199,196.7646354,1,50,,,
6.372,199,373.2393439,1,50,,,
6.376,199,302.9244061,1,50,,,
6.38,199,149.8677784,1,50,,,
6.384,199,135.5299849,1,50,,,
6.388,199,174.2299337,1,50,,,
6.392,199,174.1490985,1,50,,,
6.396,199,59.31940248,1,50,,,
6.4,200,22.52712405,1,50,,,
6.404,200,56.88924186,1,50,,,
6.408,200,-6.587061244,1,50,,,
6.412,200,57.52034675,1,50,,,
6.416,200,105.5223253,1,50,,,
6.42,200,42.48048991,1,50,,,
6.424,200,73.28437856,1,50,,,
6.428,200,-27.97400177,1,50,,,
6.432,201,-180.5828318,1,50,,,
6.436,201,-56.68821082,1,50,,,
6.44,201,109.9509885,1,50,,,
6.444,201,128.4171745,1,50,,,
6.448,201,7.125539459,1,50,,,
6.452,201,-200.1839259,1,50,,,
6.456,201,-212.0725852,1,50,,,
6.46,201,-43.99707066,1,50,,,
6.464,202,83.22034335,1,50,,,
6.468,202,110.8856807,1,50,,,
6.472,202,2.689855232,1,50,,,
6.476,202,-155.2895192,1,50,,,
6.48,202,-177.1156656,1,50,,,
6.484,202,-57.24959398,1,50,,,
6.488,202,140.2360495,1,50,,,
6.492,202,201.2800296,1,50,,,
6.496,203,101.0813305,1,50,,,
6.5,203,10.92108263,1,50,,,
6.504,203,-72.72182456,1,50,,,
6.508,203,-83.12060993,1,50,,,
6.512,203,-77.06733452,1,50,,,
6.516,203,-28.90870892,1,50,,,
6.52,203,9.285789343,1,50,,,
6.524,203,-45.58014622,1,50,,,
6.528,204,61.57572707,1,50,,,
6.532,204,174.9154695,1,50,,,
6.536,204,107.2828827,1,50,,,
6.54,204,66.05556534,1,50,,,
6.544,204,63.17414928,1,50,,,
6.548,204,-45.24308826,1,50,,,
6.552,204,-135.3756821,1,50,,,
6.556,204,-36.64802121,1,50,,,
6.56,205,81.12023048,1,50,,,
6.564,205,99.50772124,1,50,,,
6.568,205,68.89238919,1,50,,,
6.572,205,0.838623264,1,50,,,
6.576,205,-62.41037003,1,50,,,
6.58,205,-73.45024093,1,50,,,
6.584,205,-49.15346301,1,50,,,
6.588,205,-113.0737905,1,50,,,
6.592,206,-255.5491786,1,50,,,
6.596,206,-186.0849397,1,50,,,
6.6,206,53.62193013,1,50,,,
6.604,206,182.4888642,1,50,,,
6.608,206,195.3497231,1,50,,,
6.612,206,97.49298763,1,50,,,
6.616,206,-152.929932,1,50,,,
6.62,206,-280.9275712,1,50,,,
6.624,207,-147.3087503,1,50,,,
6.628,207,-53.75881368,1,50,,,
6.632,207,-70.54102543,1,50,,,
6.636,207,-38.85338681,1,50,,,
6.64,207,7.579190429,1,50,,,
6.644,207,25.06597773,1,50,,,
6.648,207,-8.56228748,1,50,,,
6.652,207,-69.45620447,1,50,,,
6.656,208,-124.9330699,1,50,,,
6.66,208,-189.70534,1,50,,,
6.664,208,-124.9482563,1,50,,,
6.668,208,-54.70808133,1,50,,,
6.672,208,-109.2579051,1,50,,,
6.676,208,-74.9793662,1,50,,,
6.68,208,-81.43188562,1,50,,,
6.684,208,-102.5292194,1,50,,,
6.688,209,39.17002758,1,50,,,
6.692,209,29.85820526,1,50,,,
6.696,209,-77.65817879,1,50,,,
6.7,209,-117.4737063,1,50,,,
6.704,209,-193.9988181,1,50,,,
6.708,209,-141.8473627,1,50,,,
6.712,209,42.7470751,1,50,,,
6.716,209,104.2792185,1,50,,,
6.72,210,54.50045364,1,50,,,
6.724,210,-4.252870313,1,50,,,
6.728,210,-69.82961733,1,50,,,
6.732,210,-90.00504127,1,50,,,
6.736,210,-59.19005511,1,50,,,
6.74,210,-63.72750083,1,50,,,
6.744,210,5.56411192,1,50,,,
6.748,210,124.4588041,1,50,,,
6.752,211,92.17230885,1,50,,,
6.756,211,-2.689551961,1,50,,,
6.76,211,-31.37024656,1,50,,,
6.764,211,-6.959184716,1,50,,,
6.768,211,-7.829530902,1,50,,,
6.772,211,10.70091074,1,50,,,
6.776,211,12.70784302,1,50,,,
6.78,211,-80.32461853,1,50,,,
6.784,212,-88.76386236,1,50,,,
6.788,212,34.94987819,1,50,,,
6.792,212,76.86607917,1,50,,,
6.796,212,5.161735586,1,50,,,
6.8,212,-51.26306903,1,50,,,
6.804,212,-108.1576913,1,50,,,
6.808,212,-185.6967987,1,50,,,
6.812,212,-140.883763,1,50,,,
6.816,213,1.741803248,1,50,,,
6.82,213,100.7555545,1,50,,,
6.824,213,13.28281048,1,50,,,
6.828,213,-111.6375732,1,50,,,
6.832,213,-93.883275,1,50,,,
6.836,213,-126.7660564,1,50,,,
6.84,213,17.15296851,1,50,,,
6.844,213,159.1415448,1,50,,,
6.848,214,-68.87846117,1,50,,,
6.852,214,-251.0923319,1,50,,,
6.856,214,-147.7183536,1,50,,,
6.86,214,11.99768458,1,50,,,
6.864,214,33.22541685,1,50,,,
6.868,214,-57.69611205,1,50,,,
6.872,214,-152.1652113,1,50,,,
6.876,214,-194.8521777,1,50,,,
6.88,215,-241.9042856,1,50,,,
6.884,215,-233.9728767,1,50,,,
6.888,215,-99.34780096,1,50,,,
6.892,215,-45.91435842,1,50,,,
6.896,215,-101.818232,1,50,,,
6.9,215,-76.63927609,1,50,,,
6.904,215,42.41172039,1,50,,,
6.908,215,52.24757849,1,50,,,
6.912,216,-43.76968047,1,50,,,
6.916,216,-46.41846652,1,50,,,
6.92,216,-8.266846022,1,50,,,
6.924,216,-43.2975281,1,50,,,
6.928,216,-84.54229647,1,50,,,
6.932,216,-140.61933,1,50,,,
6.936,216,-232.0016013,1,50,,,
6.94,216,-274.6123356,1,50,,,
6.944,217,-247.4964595,1,50,,,
6.948,217,-88.687835,1,50,,,
6.952,217,26.53163974,1,50,,,
6.956,217,-35.66080958,1,50,,,
6.96,217,-106.2612764,1,50,,,
6.964,217,-170.9242597,1,50,,,
6.968,217,-251.0782045,1,50,,,
6.972,217,-187.931881,1,50,,,
6.976,218,-83.74810615,1,50,,,
6.98,218,-95.02896531,1,50,,,
6.984,218,-82.41337208,1,50,,,
6.988,218,-61.95259382,1,50,,,
6.992,218,-120.7254788,1,50,,,
6.996,218,-170.3349688,1,50,,,
7,218,-119.9991577,1,50,,,
7.004,218,-54.00489785,1,50.00006567,,,
7.008,219,-55.92205541,1,49.98867228,,,
7.012,219,-38.21017775,1,50.00273406,,,
7.016,219,-61.71419549,1,50.1965811,,,
7.02,219,-143.9995922,1,49.59238544,,,
7.024,219,-143.3357781,1,47.78115011,,,
7.028,219,-63.5725494,1,46.81903129,,,
7.032,219,-20.93553977,1,46.96089013,,,
7.036,219,-56.67734299,1,47.01846211,,,
7.04,220,-55.80169398,1,46.99934507,,,
7.044,220,18.86492221,1,47,,,
7.048,220,76.32153024,1,47,,,
7.052,220,-5.123679211,1,47,,,
7.056,220,-147.2379992,1,47,,,
7.06,220,-114.4191756,1,47,,,
7.064,220,22.83606154,1,47,,,
7.068,220,29.68892179,1,47,,,
7.072,221,-74.20961191,1,47,,,
7.076,221,-159.5944085,1,47,,,
7.08,221,-90.05984791,1,47,,,
7.084,221,40.95066198,1,47,,,
7.088,221,24.65141206,1,47,,,
7.092,221,24.72397615,1,47,,,
7.096,221,2.747924284,1,47,,,
7.1,221,-132.8978299,1,47,,,
7.104,222,-53.06942615,1,47,,,
7.108,222,30.47648458,1,47,,,
7.112,222,-90.61234527,1,47,,,
7.116,222,-120.0719904,1,47,,,
7.12,222,-77.54401202,1,47,,,
7.124,222,-100.0494939,1,47,,,
7.128,222,-73.08572816,1,47,,,
7.132,222,113.948063,1,47,,,
7.136,223,231.6222554,1,47,,,
7.14,223,190.9015286,1,47,,,
7.144,223,45.0703191,1,47,,,
7.148,223,-80.0512113,1,47,,,
7.152,223,-52.86164201,1,47,,,
7.156,223,-36.10968899,1,47,,,
7.16,223,13.92466709,1,47,,,
7.164,223,122.6138105,1,47,,,
7.168,224,105.2432597,1,47,,,
7.172,224,61.96443497,1,47,,,
7.176,224,53.03167832,1,47,,,
7.18,224,8.937303617,1,47,,,
7.184,224,-2.722730183,1,47,,,
7.188,224,-36.72459038,1,47,,,
7.192,224,-95.03571674,1,47,,,
7.196,224,-48.92206908,1,47,,,
7.2,225,22.81820963,1,47,,,
7.204,225,145.1802865,1,47,,,
7.208,225,321.4503244,1,47,,,
7.212,225,239.0029437,1,47,,,
7.216,225,29.08215522,1,47,,,
7.22,225,-6.460945565,1,47,,,
7.224,225,-28.98939875,1,47,,,
7.228,225,1.833595119,1,47,,,
7.232,226,145.5127974,1,47,,,
7.236,226,239.8204984,1,47,,,
7.24,226,273.5603631,1,47,,,
7.244,226,203.4838324,1,47,,,
7.248,226,112.0293155,1,47,,,
7.252,226,67.43895242,1,47,,,
7.256,226,56.62593878,1,47,,,
7.26,226,147.2767657,1,47,,,
7.264,227,232.1347035,1,47,,,
7.268,227,221.2203294,1,47,,,
7.272,227,226.0328769,1,47,,,
7.276,227,275.2525673,1,47,,,
7.28,227,256.8409299,1,47,,,
7.284,227,196.8022356,1,47,,,
7.288,227,244.6584225,1,47,,,
7.292,227,310.1766629,1,47,,,
7.296,228,271.3642446,1,47,,,
7.3,228,240.2825341,1,47,,,
7.304,228,221.6968147,1,47,,,
7.308,228,186.8764148,1,47,,,
7.312,228,231.2499487,1,47,,,
7.316,228,289.911138,1,47,,,
7.32,228,264.407631,1,47,,,
7.324,228,206.9135617,1,47,,,
7.328,229,232.9116104,1,47,,,
7.332,229,295.8991967,1,47,,,
7.336,229,181.1973554,1,47,,,
7.34,229,-43.56686342,1,47,,,
7.344,229,-130.9608696,1,47,,,
7.348,229,-96.32079309,1,47,,,
7.352,229,-15.44024933,1,47,,,
7.356,229,102.414411,1,47,,,
7.36,230,36.21746968,1,47,,,
7.364,230,-141.961231,1,47,,,
7.368,230,-134.7737908,1,47,,,
7.372,230,-100.9027181,1,47,,,
7.376,230,-42.64031139,1,47,,,
7.38,230,152.2543757,1,47,,,
7.384,230,145.2850105,1,47,,,
7.388,230,5.387303608,1,47,,,
7.392,231,2.432608549,1,47,,,
7.396,231,12.4593259,1,47,,,
7.4,231,18.07003944,1,47,,,
7.404,231,85.43291349,1,47,,,
7.408,231,115.8819943,1,47,,,
7.412,231,-38.84071517,1,47,,,
7.416,231,-202.416902,1,47,,,
7.42,231,-139.1646763,1,47,,,
7.424,232,9.418018618,1,47,,,
7.428,232,82.37057853,1,47,,,
7.432,232,78.52697399,1,47,,,
7.436,232,19.14251485,1,47,,,
7.44,232,-25.02310044,1,47,,,
7.444,232,36.01546732,1,47,,,
7.448,232,94.38051822,1,47,,,
7.452,232,-4.728530042,1,47,,,
7.456,233,-46.52199764,1,47,,,
7.46,233,61.90767995,1,47,,,
7.464,233,96.9906743,1,47,,,
7.468,233,90.22642751,1,47,,,
7.472,233,174.2745855,1,47,,,
7.476,233,228.8547552,1,47,,,
7.48,233,182.6940399,1,47,,,
7.484,233,161.4920771,1,47,,,
7.488,234,168.5427554,1,47,,,
7.492,234,88.22499482,1,47,,,
7.496,234,24.23798086,1,47,,,
7.5,234,35.79377592,1,47,,,
7.504,234,71.24371636,1,47,,,
7.508,234,181.6392472,1,47,,,
7.512,234,262.6448052,1,47,,,
7.516,234,291.7869089,1,47,,,
7.52,235,267.6381536,1,47,,,
7.524,235,161.5051107,1,47,,,
7.528,235,186.3820075,1,47,,,
7.532,235,289.9238501,1,47,,,
7.536,235,242.785698,1,47,,,
7.54,235,227.9930538,1,47,,,
7.544,235,334.183093,1,47,,,
7.548,235,485.3368421,1,47,,,
7.552,236,639.7678124,1,47,,,
7.556,236,653.2114854,1,47,,,
7.56,236,595.4254148,1,47,,,
7.564,236,540.263158,1,47,,,
7.568,236,464.6663435,1,47,,,
7.572,236,471.7400142,1,47,,,
7.576,236,479.8409574,1,47,,,
7.58,236,333.4927611,1,47,,,
7.584,237,265.8554834,1,47,,,
7.588,237,321.4025097,1,47,,,
7.592,237,202.1984343,1,47,,,
7.596,237,129.3695418,1,47,,,
7.6,237,245.1454411,1,47,,,
7.604,237,240.8375019,1,47,,,
7.608,237,162.7001355,1,47,,,
7.612,237,75.14893858,1,47,,,
7.616,238,-174.7438979,1,47,,,
7.62,238,-408.1974928,1,47,,,
7.624,238,-293.1492795,1,47,,,
7.628,238,-35.1693421,1,47,,,
7.632,238,37.02086758,1,47,,,
7.636,238,-60.42580174,1,47,,,
7.64,238,-195.0118863,1,47,,,
7.644,238,-265.4710461,1,47,,,
7.648,239,-240.3735928,1,47,,,
7.652,239,-210.1770725,1,47,,,
7.656,239,-254.2229371,1,47,,,
7.66,239,-263.9682163,1,47,,,
7.664,239,-179.868449,1,47,,,
7.668,239,-73.45481704,1,47,,,
7.672,239,-36.93372283,1,47,,,
7.676,239,-70.56409987,1,47,,,
7.68,240,-99.24226371,1,47,,,
7.684,240,-30.68381938,1,47,,,
7.688,240,63.9496217,1,47,,,
7.692,240,-16.71025814,1,47,,,
7.696,240,-193.0793504,1,47,,,
7.7,240,-150.4822371,1,47,,,
7.704,240,-13.05152797,1,47,,,
7.708,240,35.18516816,1,47,,,
7.712,241,80.14510635,1,47,,,
7.716,241,73.48320006,1,47,,,
7.72,241,38.61627182,1,47,,,
7.724,241,23.97643469,1,47,,,
7.728,241,78.45157765,1,47,,,
7.732,241,157.1302899,1,47,,,
7.736,241,162.0759629,1,47,,,
7.74,241,141.0944933,1,47,,,
7.744,242,14.23878427,1,47,,,
7.748,242,-139.3055032,1,47,,,
7.752,242,-128.8236348,1,47,,,
7.756,242,2.860225813,1,47,,,
7.76,242,126.9524439,1,47,,,
7.764,242,192.4758441,1,47,,,
7.768,242,223.9185769,1,47,,,
7.772,242,125.4988736,1,47,,,
7.776,243,-27.39948666,1,47,,,
7.78,243,8.46607368,1,47,,,
7.784,243,142.2560952,1,47,,,
7.788,243,174.2545424,1,47,,,
7.792,243,154.0006069,1,47,,,
7.796,243,40.01445148,1,47,,,
7.8,243,-139.2764013,1,47,,,
7.804,243,-149.9093849,1,47,,,
7.808,244,125.9854675,1,47,,,
7.812,244,374.0618404,1,47,,,
7.816,244,331.0433275,1,47,,,
7.82,244,185.6360358,1,47,,,
7.824,244,34.22664112,1,47,,,
7.828,244,22.93551182,1,47,,,
7.832,244,178.1259593,1,47,,,
7.836,244,188.0697102,1,47,,,
7.84,245,96.42444137,1,47,,,
7.844,245,73.21667321,1,47,,,
7.848,245,96.74738599,1,47,,,
7.852,245,143.4170988,1,47,,,
7.856,245,134.6104558,1,47,,,
7.86,245,103.5238938,1,47,,,
7.864,245,40.98114143,1,47,,,
7.868,245,-4.902344878,1,47,,,
7.872,246,132.661058,1,47,,,
7.876,246,323.9605957,1,47,,,
7.88,246,288.9489886,1,47,,,
7.884,246,98.95439756,1,47,,,
7.888,246,38.6255045,1,47,,,
7.892,246,53.39522662,1,47,,,
7.896,246,51.69722873,1,47,,,
7.9,246,158.4893483,1,47,,,
7.904,247,265.5101317,1,47,,,
7.908,247,264.7268125,1,47,,,
7.912,247,138.1936001,1,47,,,
7.916,247,-25.98517492,1,47,,,
7.92,247,-53.9378516,1,47,,,
7.924,247,-71.1383334,1,47,,,
7.928,247,-5.632440976,1,47,,,
7.932,247,164.711877,1,47,,,
7.936,248,96.1305961,1,47,,,
7.94,248,11.47932177,1,47,,,
7.944,248,109.4560833,1,47,,,
7.948,248,64.39050346,1,47,,,
7.952,248,9.201093068,1,47,,,
7.956,248,83.83718323,1,47,,,
7.96,248,58.32842369,1,47,,,
7.964,248,-14.14905336,1,47,,,
7.968,249,-20.70059419,1,47,,,
7.972,249,-60.17740327,1,47,,,
7.976,249,-179.2179272,1,47,,,
7.98,249,-238.3133854,1,47,,,
7.984,249,-42.45567179,1,47,,,
7.988,249,181.2740231,1,47,,,
7.992,249,175.6446232,1,47,,,
7.996,249,109.7227463,1,47,,,
8,250,34.27874563,1,47,,,
8.004,250,-54.93258067,1,46.99984678,,,
8.008,250,-23.38513748,1,47.02643135,,,
8.012,250,93.52365676,1,46.99362052,,,
8.016,250,150.1111765,1,46.54131076,,,
8.02,250,93.70262681,1,47.95110065,,,
8.024,250,35.39280286,1,52.1773164,,,
8.028,250,70.44519306,1,54.42226033,,,
8.032,251,86.64911234,1,54.09125637,,,
8.036,251,32.62633647,1,53.95692175,,,
8.04,251,51.57900685,1,54.00152816,,,
8.044,251,109.1074795,1,54,,,
8.048,251,72.10443544,1,54,,,
8.052,251,12.53179137,1,54,,,
8.056,251,-28.81385995,1,54,,,
8.06,251,-85.01954443,1,54,,,
8.064,252,-57.15738986,1,54,,,
8.068,252,118.9480909,1,54,,,
8.072,252,217.265929,1,54,,,
8.076,252,157.3978262,1,54,,,
8.08,252,79.20568931,1,54,,,
8.084,252,17.87708112,1,54,,,
8.088,252,-7.394464961,1,54,,,
8.092,252,54.71589465,1,54,,,
8.096,253,130.474732,1,54,,,
8.1,253,99.08697483,1,54,,,
8.104,253,-13.11175985,1,54,,,
8.108,253,-28.72592235,1,54,,,
8.112,253,65.86063799,1,54,,,
8.116,253,131.957593,1,54,,,
8.12,253,200.2570511,1,54,,,
8.124,253,218.9014987,1,54,,,
8.128,254,121.2293477,1,54,,,
8.132,254,37.01671448,1,54,,,
8.136,254,38.98359624,1,54,,,
8.14,254,40.42162411,1,54,,,
8.144,254,40.45884033,1,54,,,
8.148,254,180.2273838,1,54,,,
8.152,254,293.7250175,1,54,,,
8.156,254,236.4470514,1,54,,,
8.16,255,152.0809233,1,54,,,
8.164,255,71.86099996,1,54,,,
8.168,255,52.66489765,1,54,,,
8.172,255,82.50789712,1,54,,,
8.176,255,176.6141114,1,54,,,
8.18,255,296.837895,1,54,,,
8.184,255,221.0652279,1,54,,,
8.188,255,6.661101722,1,54,,,
8.192,256,-61.93225448,1,54,,,
8.196,256,-5.449795835,1,54,,,
8.2,256,24.38457523,1,54,,,
8.204,256,86.75520519,1,54,,,
8.208,256,149.9145465,1,54,,,
8.212,256,105.6775193,1,54,,,
8.216,256,35.12669252,1,54,,,
8.22,256,73.27132986,1,54,,,
8.224,257,117.7064976,1,54,,,
8.228,257,108.4510687,1,54,,,
8.232,257,140.4687996,1,54,,,
8.236,257,181.1135227,1,54,,,
8.24,257,273.8321369,1,54,,,
8.244,257,357.8227931,1,54,,,
8.248,257,269.3113639,1,54,,,
8.252,257,169.0716018,1,54,,,
8.256,258,140.8958501,1,54,,,
8.26,258,180.9114466,1,54,,,
8.264,258,383.766487,1,54,,,
8.268,258,498.0287041,1,54,,,
8.272,258,257.0996567,1,54,,,
8.276,258,13.68725482,1,54,,,
8.28,258,10.51945703,1,54,,,
8.284,258,84.0620937,1,54,,,
8.288,259,226.9074779,1,54,,,
8.292,259,321.4805627,1,54,,,
8.296,259,190.0285434,1,54,,,
8.3,259,19.3480814,1,54,,,
8.304,259,-45.71216259,1,54,,,
8.308,259,-16.0720856,1,54,,,
8.312,259,53.62833216,1,54,,,
8.316,259,71.06260379,1,54,,,
8.32,260,24.88376479,1,54,,,
8.324,260,-84.09782012,1,54,,,
8.328,260,-206.9290785,1,54,,,
8.332,260,-154.2195917,1,54,,,
8.336,260,106.2681136,1,54,,,
8.34,260,245.4963448,1,54,,,
8.344,260,78.61505529,1,54,,,
8.348,260,-236.5146607,1,54,,,
8.352,261,-270.2720349,1,54,,,
8.356,261,-94.64103594,1,54,,,
8.36,261,53.46950918,1,54,,,
8.364,261,189.8872379,1,54,,,
8.368,261,80.86288276,1,54,,,
8.372,261,-210.330029,1,54,,,
8.376,261,-321.1056789,1,54,,,
8.38,261,-140.5282541,1,54,,,
8.384,262,24.46266988,1,54,,,
8.388,262,-5.257109233,1,54,,,
8.392,262,-62.14368581,1,54,,,
8.396,262,-19.67790566,1,54,,,
8.4,262,3.358153312,1,54,,,
8.404,262,-122.7186853,1,54,,,
8.408,262,-134.6899902,1,54,,,
8.412,262,-37.62901735,1,54,,,
8.416,263,-81.60786508,1,54,,,
8.42,263,-78.16475181,1,54,,,
8.424,263,-42.47377128,1,54,,,
8.428,263,-38.78111523,1,54,,,
8.432,263,-22.21898164,1,54,,,
8.436,263,-40.17824174,1,54,,,
8.44,263,27.47823087,1,54,,,
8.444,263,83.050028,1,54,,,
8.448,264,4.17229536,1,54,,,
8.452,264,-57.86206302,1,54,,,
8.456,264,-69.9703235,1,54,,,
8.46,264,-53.23654333,1,54,,,
8.464,264,47.12209335,1,54,,,
8.468,264,196.6468753,1,54,,,
8.472,264,203.786013,1,54,,,
8.476,264,70.84102369,1,54,,,
8.48,265,-24.82507965,1,54,,,
8.484,265,-207.9468138,1,54,,,
8.488,265,-337.5996361,1,54,,,
8.492,265,-132.4283397,1,54,,,
8.496,265,57.92473506,1,54,,,
8.5,265,81.42259117,1,54,,,
8.504,265,132.5232407,1,54,,,
8.508,265,52.63258791,1,54,,,
8.512,266,-169.5762513,1,54,,,
8.516,266,-166.3647749,1,54,,,
8.52,266,-14.41703587,1,54,,,
8.524,266,-27.84603981,1,54,,,
8.528,266,-58.44155346,1,54,,,
8.532,266,-47.7969837,1,54,,,
8.536,266,-84.17711779,1,54,,,
8.54,266,-35.37542742,1,54,,,
8.544,267,15.54384906,1,54,,,
8.548,267,-53.92207723,1,54,,,
8.552,267,-116.3074749,1,54,,,
8.556,267,-94.93023035,1,54,,,
8.56,267,-84.87588538,1,54,,,
8.564,267,-43.92975586,1,54,,,
8.568,267,78.98509116,1,54,,,
8.572,267,105.0182718,1,54,,,
8.576,268,77.39479395,1,54,,,
8.58,268,-59.52038421,1,54,,,
8.584,268,-255.8797544,1,54,,,
8.588,268,-140.6604606,1,54,,,
8.592,268,49.0538148,1,54,,,
8.596,268,89.47237994,1,54,,,
8.6,268,100.1067252,1,54,,,
8.604,268,-6.518541257,1,54,,,
8.608,269,-161.1836461,1,54,,,
8.612,269,-179.641153,1,54,,,
8.616,269,-34.78830364,1,54,,,
8.62,269,143.743211,1,54,,,
8.624,269,131.7522951,1,54,,,
8.628,269,4.523621981,1,54,,,
8.632,269,-22.54002948,1,54,,,
8.636,269,-43.05494818,1,54,,,
8.64,270,-91.18100461,1,54,,,
8.644,270,-40.09883996,1,54,,,
8.648,270,36.89827365,1,54,,,
8.652,270,53.24814109,1,54,,,
8.656,270,-12.11257252,1,54,,,
8.66,270,-53.39468097,1,54,,,
8.664,270,61.82357356,1,54,,,
8.668,270,104.6756882,1,54,,,
8.672,271,-5.872892329,1,54,,,
8.676,271,-24.11976312,1,54,,,
8.68,271,58.38843855,1,54,,,
8.684,271,41.73519817,1,54,,,
8.688,271,-26.42344485,1,54,,,
8.692,271,33.60624666,1,54,,,
8.696,271,153.9222959,1,54,,,
8.7,271,162.5632008,1,54,,,
8.704,272,82.49341753,1,54,,,
8.708,272,-20.81285447,1,54,,,
8.712,272,-77.61628953,1,54,,,
8.716,272,41.58473141,1,54,,,
8.72,272,163.2663378,1,54,,,
8.724,272,132.9944114,1,54,,,
8.728,272,113.6970129,1,54,,,
8.732,272,107.8561007,1,54,,,
8.736,273,91.39651395,1,54,,,
8.74,273,56.70053507,1,54,,,
8.744,273,-56.8432467,1,54,,,
8.748,273,-62.67642537,1,54,,,
8.752,273,108.1588187,1,54,,,
8.756,273,250.8778476,1,54,,,
8.76,273,296.3040342,1,54,,,
8.764,273,241.4220911,1,54,,,
8.768,274,40.81985945,1,54,,,
8.772,274,-175.0836897,1,54,,,
8.776,274,-121.8190184,1,54,,,
8.78,274,33.39112557,1,54,,,
8.784,274,26.26343962,1,54,,,
8.788,274,136.7162932,1,54,,,
8.792,274,214.1860324,1,54,,,
8.796,274,-38.58761991,1,54,,,
8.8,275,-137.3252441,1,54,,,
8.804,275,39.91617438,1,54,,,
8.808,275,94.75369982,1,54,,,
8.812,275,46.8953289,1,54,,,
8.816,275,29.88393564,1,54,,,
8.82,275,37.21570823,1,54,,,
8.824,275,-24.85669172,1,54,,,
8.828,275,-144.7594792,1,54,,,
8.832,276,-113.0053119,1,54,,,
8.836,276,42.03700321,1,54,,,
8.84,276,97.06747982,1,54,,,
8.844,276,118.4601407,1,54,,,
8.848,276,91.55536869,1,54,,,
8.852,276,-91.12238293,1,54,,,
8.856,276,-264.8256289,1,54,,,
8.86,276,-102.0412212,1,54,,,
8.864,277,216.1377176,1,54,,,
8.868,277,251.7471095,1,54,,,
8.872,277,204.0318822,1,54,,,
8.876,277,167.9110781,1,54,,,
8.88,277,8.822215579,1,54,,,
8.884,277,-105.3795489,1,54,,,
8.888,277,-86.6485948,1,54,,,
8.892,277,-43.04758207,1,54,,,
8.896,278,24.48449643,1,54,,,
8.9,278,21.84625884,1,54,,,
8.904,278,-90.05400238,1,54,,,
8.908,278,-87.72825321,1,54,,,
8.912,278,4.733921915,1,54,,,
8.916,278,-48.2155509,1,54,,,
8.92,278,-71.38069416,1,54,,,
8.924,278,30.96993508,1,54,,,
8.928,279,55.5965404,1,54,,,
8.932,279,41.24793404,1,54,,,
8.936,279,89.88588965,1,54,,,
8.94,279,90.21315311,1,54,,,
8.944,279,-33.19356351,1,54,,,
8.948,279,-158.1105624,1,54,,,
8.952,279,-208.4970311,1,54,,,
8.956,279,-122.067636,1,54,,,
8.96,280,-18.59259173,1,54,,,
8.964,280,7.320127945,1,54,,,
8.968,280,123.1651129,1,54,,,
8.972,280,165.5333813,1,54,,,
8.976,280,6.266570313,1,54,,,
8.98,280,-84.53664504,1,54,,,
8.984,280,-127.70144,1,54,,,
8.988,280,-252.5291238,1,54,,,
8.992,281,-249.7415617,1,54,,,
8.996,281,-33.94022624,1,54,,,
9,281,90.52713509,1,54,,,
9.004,281,10.81134633,1,54.00024077,,,
9.008,281,-65.88104402,1,53.95846503,,,
9.012,281,-39.35252556,1,54.0100249,,,
9.016,281,11.07075012,1,54.72079737,,,
9.02,281,55.18628004,1,52.50541327,,,
9.024,282,-27.65935916,1,45.86421708,,,
9.028,282,-277.8581618,1,42.33644806,,,
9.032,282,-352.6349652,1,42.85659713,,,
9.036,282,-159.5679749,1,43.06769439,,,
9.04,282,19.16746595,1,42.9975986,,,
9.044,282,22.86008408,1,43,,,
9.048,282,-13.76413602,1,43,,,
9.052,282,-38.75447594,1,43,,,
9.056,283,-187.2806594,1,43,,,
9.06,283,-238.4275337,1,43,,,
9.064,283,-133.6064312,1,43,,,
9.068,283,-87.48428732,1,43,,,
9.072,283,24.81578001,1,43,,,
9.076,283,99.18727369,1,43,,,
9.08,283,-71.16585937,1,43,,,
9.084,283,-196.1540376,1,43,,,
9.088,284,-188.9455394,1,43,,,
9.092,284,-232.6603138,1,43,,,
9.096,284,-136.918778,1,43,,,
9.1,284,25.21819349,1,43,,,
9.104,284,-7.181536927,1,43,,,
9.108,284,-78.89647409,1,43,,,
9.112,284,-99.3895278,1,43,,,
9.116,284,-135.7218782,1,43,,,
9.12,285,-133.4018942,1,43,,,
9.124,285,-104.0106201,1,43,,,
9.128,285,-135.0710559,1,43,,,
9.132,285,-157.8608239,1,43,,,
9.136,285,-171.2286118,1,43,,,
9.14,285,-166.4349292,1,43,,,
9.144,285,-43.38607912,1,43,,,
9.148,285,7.458674476,1,43,,,
9.152,286,-74.94834016,1,43,,,
9.156,286,-57.18549391,1,43,,,
9.16,286,-70.78799038,1,43,,,
9.164,286,-221.5842899,1,43,,,
9.168,286,-240.0437194,1,43,,,
9.172,286,-133.990975,1,43,,,
9.176,286,-66.20882892,1,43,,,
9.18,286,-18.88470693,1,43,,,
9.184,287,-16.2825165,1,43,,,
9.188,287,-47.20816962,1,43,,,
9.192,287,-92.35571109,1,43,,,
9.196,287,-178.0273349,1,43,,,
9.2,287,-175.1214124,1,43,,,
9.204,287,-45.90230226,1,43,,,
9.208,287,-14.80982775,1,43,,,
9.212,287,-30.64569108,1,43,,,
9.216,288,-32.56205165,1,43,,,
9.22,288,-136.6115737,1,43,,,
9.224,288,-148.9610712,1,43,,,
9.228,288,-45.23894265,1,43,,,
9.232,288,-42.28393335,1,43,,,
9.236,288,-77.67003004,1,43,,,
9.24,288,-93.91086511,1,43,,,
9.244,288,-105.5260529,1,43,,,
9.248,289,-108.3421915,1,43,,,
9.252,289,-111.0132759,1,43,,,
9.256,289,-35.31401419,1,43,,,
9.26,289,21.14500291,1,43,,,
9.264,289,-57.06069467,1,43,,,
9.268,289,-146.9230531,1,43,,,
9.272,289,-114.408119,1,43,,,
9.276,289,-29.17650974,1,43,,,
9.28,290,32.79463521,1,43,,,
9.284,290,88.60166515,1,43,,,
9.288,290,54.31179481,1,43,,,
9.292,290,-68.10555919,1,43,,,
9.296,290,-88.12017856,1,43,,,
9.3,290,-12.94114134,1,43,,,
9.304,290,-41.36733399,1,43,,,
9.308,290,-93.25535099,1,43,,,
9.312,291,-49.39195044,1,43,,,
9.316,291,-1.637874062,1,43,,,
9.32,291,40.391138,1,43,,,
9.324,291,118.5397517,1,43,,,
9.328,291,105.379867,1,43,,,
9.332,291,-16.22356596,1,43,,,
9.336,291,-57.91661872,1,43,,,
9.34,291,-56.21330194,1,43,,,
9.344,292,-81.88309362,1,43,,,
9.348,292,-5.065835358,1,43,,,
9.352,292,104.7146552,1,43,,,
9.356,292,56.11612553,1,43,,,
9.36,292,-94.15239675,1,43,,,
9.364,292,-95.75518988,1,43,,,
9.368,292,34.49311894,1,43,,,
9.372,292,133.9706944,1,43,,,
9.376,293,129.9815426,1,43,,,
9.38,293,40.94288623,1,43,,,
9.384,293,-6.502715002,1,43,,,
9.388,293,-40.82371057,1,43,,,
9.392,293,-16.69905003,1,43,,,
9.396,293,90.2599874,1,43,,,
9.4,293,115.3715558,1,43,,,
9.404,293,89.26690015,1,43,,,
9.408,294,76.80770135,1,43,,,
9.412,294,31.33307456,1,43,,,
9.416,294,-59.97740298,1,43,,,
9.42,294,-147.6181945,1,43,,,
9.424,294,-67.17751827,1,43,,,
9.428,294,116.788745,1,43,,,
9.432,294,94.17707758,1,43,,,
9.436,294,39.0879876,1,43,,,
9.44,295,87.5304237,1,43,,,
9.444,295,18.09354188,1,43,,,
9.448,295,-10.04172482,1,43,,,
9.452,295,69.76370743,1,43,,,
9.456,295,97.28458456,1,43,,,
9.46,295,50.52968605,1,43,,,
9.464,295,-24.73661761,1,43,,,
9.468,295,-58.41992986,1,43,,,
9.472,296,-48.97821146,1,43,,,
9.476,296,-4.594052398,1,43,,,
9.48,296,60.94659254,1,43,,,
9.484,296,58.41398496,1,43,,,
9.488,296,27.25226894,1,43,,,
9.492,296,60.11152606,1,43,,,
9.496,296,128.4421615,1,43,,,
9.5,296,126.8529396,1,43,,,
9.504,297,23.84783563,1,43,,,
9.508,297,-47.03845924,1,43,,,
9.512,297,-76.2036761,1,43,,,
9.516,297,-56.51984213,1,43,,,
9.52,297,61.0105853,1,43,,,
9.524,297,115.6568977,1,43,,,
9.528,297,98.90437775,1,43,,,
9.532,297,120.1839781,1,43,,,
9.536,298,130.6571275,1,43,,,
9.54,298,60.5247836,1,43,,,
9.544,298,-52.1767329,1,43,,,
9.548,298,-18.42489889,1,43,,,
9.552,298,86.87876358,1,43,,,
9.556,298,88.30944739,1,43,,,
9.56,298,66.68256575,1,43,,,
9.564,298,-24.78119261,1,43,,,
9.568,299,-112.0250692,1,43,,,
9.572,299,-15.74919982,1,43,,,
9.576,299,103.4557183,1,43,,,
9.58,299,87.38682229,1,43,,,
9.584,299,6.126754161,1,43,,,
9.588,299,1.186443009,1,43,,,
9.592,299,56.90026062,1,43,,,
9.596,299,73.11509443,1,43,,,
9.6,300,25.79691096,1,43,,,
9.604,300,-50.49617275,1,43,,,
9.608,300,-38.84709721,1,43,,,
9.612,300,69.88449175,1,43,,,
9.616,300,171.6870551,1,43,,,
9.62,300,173.2013254,1,43,,,
9.624,300,80.54678398,1,43,,,
9.628,300,42.01926688,1,43,,,
9.632,301,38.29638444,1,43,,,
9.636,301,-38.63412453,1,43,,,
9.64,301,-60.28486316,1,43,,,
9.644,301,-11.73577159,1,43,,,
9.648,301,28.23725737,1,43,,,
9.652,301,119.1508843,1,43,,,
9.656,301,169.8206049,1,43,,,
9.66,301,58.15640535,1,43,,,
9.664,302,-55.00356722,1,43,,,
9.668,302,-75.37706624,1,43,,,
9.672,302,-69.66233988,1,43,,,
9.676,302,17.54882383,1,43,,,
9.68,302,140.4196454,1,43,,,
9.684,302,163.4871475,1,43,,,
9.688,302,70.7425572,1,43,,,
9.692,302,-28.68216881,1,43,,,
9.696,303,-35.63557251,1,43,,,
9.7,303,19.18768768,1,43,,,
9.704,303,80.94365377,1,43,,,
9.708,303,128.8070331,1,43,,,
9.712,303,150.5057212,1,43,,,
9.716,303,130.2887445,1,43,,,
9.72,303,84.65548896,1,43,,,
9.724,303,44.17119896,1,43,,,
9.728,304,14.9380937,1,43,,,
9.732,304,47.09866883,1,43,,,
9.736,304,112.4575757,1,43,,,
9.74,304,114.5102599,1,43,,,
9.744,304,59.66032423,1,43,,,
9.748,304,74.32824004,1,43,,,
9.752,304,163.76534,1,43,,,
9.756,304,207.1925587,1,43,,,
9.76,305,153.7477114,1,43,,,
9.764,305,-5.520407849,1,43,,,
9.768,305,-85.80243677,1,43,,,
9.772,305,47.04596989,1,43,,,
9.776,305,163.0553236,1,43,,,
9.78,305,134.09992,1,43,,,
9.784,305,108.4463598,1,43,,,
9.788,305,98.63925147,1,43,,,
9.792,306,48.32033622,1,43,,,
9.796,306,50.77671291,1,43,,,
9.8,306,121.8658825,1,43,,,
9.804,306,129.1530359,1,43,,,
9.808,306,100.5121625,1,43,,,
9.812,306,108.0976678,1,43,,,
9.816,306,101.6149741,1,43,,,
9.82,306,-7.444828382,1,43,,,
9.824,307,-130.5155468,1,43,,,
9.828,307,-119.6605865,1,43,,,
9.832,307,8.331547512,1,43,,,
9.836,307,205.7257834,1,43,,,
9.84,307,263.2115624,1,43,,,
9.844,307,158.8758641,1,43,,,
9.848,307,94.36345013,1,43,,,
9.852,307,57.23314387,1,43,,,
9.856,308,-31.89601988,1,43,,,
9.86,308,-48.93773434,1,43,,,
9.864,308,94.11579793,1,43,,,
9.868,308,160.5855428,1,43,,,
9.872,308,67.49531187,1,43,,,
9.876,308,-62.04946693,1,43,,,
9.88,308,-120.4192007,1,43,,,
9.884,308,-63.73501106,1,43,,,
9.888,309,84.80243789,1,43,,,
9.892,309,281.3061583,1,43,,,
9.896,309,341.7286147,1,43,,,
9.9,309,205.1280918,1,43,,,
9.904,309,72.05741844,1,43,,,
9.908,309,72.02642304,1,43,,,
9.912,309,78.1474527,1,43,,,
9.916,309,20.67044026,1,43,,,
9.92,310,-11.57955461,1,43,,,
9.924,310,-20.1729219,1,43,,,
9.928,310,53.87131009,1,43,,,
9.932,310,134.7010674,1,43,,,
9.936,310,100.2636401,1,43,,,
9.94,310,112.5580149,1,43,,,
9.944,310,134.5956997,1,43,,,
9.948,310,90.98989493,1,43,,,
9.952,311,122.4632516,1,43,,,
9.956,311,201.4591216,1,43,,,
9.96,311,185.2336035,1,43,,,
9.964,311,127.2775314,1,43,,,
9.968,311,170.0623976,1,43,,,
9.972,311,230.9117944,1,43,,,
9.976,311,159.2505399,1,43,,,
9.98,311,77.88702707,1,43,,,
9.984,312,166.2972765,1,43,,,
9.988,312,317.8547848,1,43,,,
9.992,312,416.483395,1,43,,,
9.996,312,445.3522603,1,43,,,
10,312,377.344152,1,43,,,
10.004,312,312.0745683,1,42.99982489,,,
10.008,312,337.039004,1,43.03020725,,,
10.012,312,399.8527572,1,42.99270916,,,
10.016,313,454.1649361,1,42.47578373,,,
10.02,313,399.9024114,1,44.08697217,,,
10.024,313,321.4394284,1,48.91693303,,,
10.028,313,314.6008378,1,51.48258323,,,
10.032,313,196.2917963,1,51.104293,,,
10.036,313,42.47751257,1,50.95076771,,,
10.04,313,-34.09246606,1,51.00174647,,,
10.044,313,-142.7058784,1,51,,,
10.048,314,-124.1768693,1,51,,,
10.052,314,-65.11719954,1,51,,,
10.056,314,-145.1938971,1,51,,,
10.06,314,-128.0631707,1,51,,,
10.064,314,-118.8540887,1,51,,,
10.068,314,-247.0949744,1,51,,,
10.072,314,-356.0008921,1,51,,,
10.076,314,-345.1798815,1,51,,,
10.08,315,-346.7525234,1,51,,,
10.084,315,-404.1581812,1,51,,,
10.088,315,-334.414502,1,51,,,
10.092,315,-293.1677047,1,51,,,
10.096,315,-316.1287977,1,51,,,
10.1,315,-267.0572875,1,51,,,
10.104,315,-232.8871753,1,51,,,
10.108,315,-209.0023659,1,51,,,
10.112,316,-230.7181947,1,51,,,
10.116,316,-276.7245111,1,51,,,
10.12,316,-259.9632542,1,51,,,
10.124,316,-239.2128325,1,51,,,
10.128,316,-230.8225779,1,51,,,
10.132,316,-111.8949492,1,51,,,
10.136,316,68.87143036,1,51,,,
10.14,316,73.25471297,1,51,,,
10.144,317,-35.50672514,1,51,,,
10.148,317,-90.2373364,1,51,,,
10.152,317,-123.743395,1,51,,,
10.156,317,-123.7417652,1,51,,,
10.16,317,-55.54838237,1,51,,,
10.164,317,-8.081036272,1,51,,,
10.168,317,-5.754809955,1,51,,,
10.172,317,10.02433822,1,51,,,
10.176,318,38.802223,1,51,,,
10.18,318,-37.87195088,1,51,,,
10.184,318,-96.26645652,1,51,,,
10.188,318,-16.08309889,1,51,,,
10.192,318,90.19553513,1,51,,,
10.196,318,168.9698668,1,51,,,
10.2,318,117.707523,1,51,,,
10.204,318,-60.02357005,1,51,,,
10.208,319,-83.23566155,1,51,,,
10.212,319,90.1714131,1,51,,,
10.216,319,168.4397857,1,51,,,
10.22,319,166.5918777,1,51,,,
10.224,319,120.9111649,1,51,,,
10.228,319,-1.588190509,1,51,,,
10.232,319,34.53471536,1,51,,,
10.236,319,170.7337782,1,51,,,
10.24,320,139.1439696,1,51,,,
10.244,320,24.86715329,1,51,,,
10.248,320,12.07589358,1,51,,,
10.252,320,26.41631422,1,51,,,
10.256,320,43.26784746,1,51,,,
10.26,320,131.3286265,1,51,,,
10.264,320,152.6372087,1,51,,,
10.268,320,79.82242627,1,51,,,
10.272,321,55.42107115,1,51,,,
10.276,321,95.16730457,1,51,,,
10.28,321,87.50763376,1,51,,,
10.284,321,-6.253754018,1,51,,,
10.288,321,-35.10373665,1,51,,,
10.292,321,99.69879483,1,51,,,
10.296,321,218.7197318,1,51,,,
10.3,321,274.2132209,1,51,,,
10.304,322,266.2444993,1,51,,,
10.308,322,102.526961,1,51,,,
10.312,322,-100.696921,1,51,,,
10.316,322,-62.97799668,1,51,,,
10.32,322,113.6152767,1,51,,,
10.324,322,132.1964906,1,51,,,
10.328,322,125.2581827,1,51,,,
10.332,322,152.6125661,1,51,,,
10.336,323,138.8538397,1,51,,,
10.34,323,152.880896,1,51,,,
10.344,323,96.27234457,1,51,,,
10.348,323,-32.14073608,1,51,,,
10.352,323,-16.57676748,1,51,,,
10.356,323,83.90428621,1,51,,,
10.36,323,182.071009,1,51,,,
10.364,323,248.8685972,1,51,,,
10.368,324,169.1619932,1,51,,,
10.372,324,14.15805066,1,51,,,
10.376,324,-42.98606867,1,51,,,
10.38,324,39.66636777,1,51,,,
10.384,324,202.8948595,1,51,,,
10.388,324,223.630396,1,51,,,
10.392,324,144.8762719,1,51,,,
10.396,324,151.5789689,1,51,,,
10.4,325,141.8090683,1,51,,,
10.404,325,129.9063731,1,51,,,
10.408,325,109.6361891,1,51,,,
10.412,325,60.55607892,1,51,,,
10.416,325,72.6156929,1,51,,,
10.42,325,81.20238714,1,51,,,
10.424,325,36.50509791,1,51,,,
10.428,325,-37.49903315,1,51,,,
10.432,326,-82.60722392,1,51,,,
10.436,326,14.50021682,1,51,,,
10.44,326,130.4686802,1,51,,,
10.444,326,121.2075216,1,51,,,
10.448,326,47.14933715,1,51,,,
10.452,326,-15.08806585,1,51,,,
10.456,326,-4.399845526,1,51,,,
10.46,326,84.39262984,1,51,,,
10.464,327,157.2809398,1,51,,,
10.468,327,120.5983025,1,51,,,
10.472,327,20.81568792,1,51,,,
10.476,327,2.113326833,1,51,,,
10.48,327,69.89557716,1,51,,,
10.484,327,83.76752488,1,51,,,
10.488,327,38.85821388,1,51,,,
10.492,327,-1.257370324,1,51,,,
10.496,328,-130.2020418,1,51,,,
10.5,328,-177.9877556,1,51,,,
10.504,328,68.43926561,1,51,,,
10.508,328,283.7222398,1,51,,,
10.512,328,304.3670135,1,51,,,
10.516,328,199.5228481,1,51,,,
10.52,328,25.42070698,1,51,,,
10.524,328,-18.62364788,1,51,,,
10.528,329,60.56861895,1,51,,,
10.532,329,115.0924875,1,51,,,
10.536,329,108.6739621,1,51,,,
10.54,329,45.96121501,1,51,,,
10.544,329,-19.83117206,1,51,,,
10.548,329,-54.44668101,1,51,,,
10.552,329,-80.70106207,1,51,,,
10.556,329,-73.40331533,1,51,,,
10.56,330,42.91439969,1,51,,,
10.564,330,179.679076,1,51,,,
10.568,330,230.2723552,1,51,,,
10.572,330,171.872639,1,51,,,
10.576,330,37.1756128,1,51,,,
10.58,330,-34.09596182,1,51,,,
10.584,330,-11.38203279,1,51,,,
10.588,330,43.31677637,1,51,,,
10.592,331,109.0074955,1,51,,,
10.596,331,143.8774635,1,51,,,
10.6,331,133.752058,1,51,,,
10.604,331,72.74081914,1,51,,,
10.608,331,44.85971962,1,51,,,
10.612,331,96.42965539,1,51,,,
10.616,331,77.49975464,1,51,,,
10.62,331,32.87162771,1,51,,,
10.624,332,-8.30852333,1,51,,,
10.628,332,-63.44343819,1,51,,,
10.632,332,46.49317205,1,51,,,
10.636,332,223.7385139,1,51,,,
10.64,332,242.6373058,1,51,,,
10.644,332,153.3527233,1,51,,,
10.648,332,60.91953355,1,51,,,
10.652,332,55.95382274,1,51,,,
10.656,333,38.68268539,1,51,,,
10.66,333,-34.56679127,1,51,,,
10.664,333,22.16388257,1,51,,,
10.668,333,88.22999634,1,51,,,
10.672,333,82.02753338,1,51,,,
10.676,333,155.8538411,1,51,,,
10.68,333,137.1222602,1,51,,,
10.684,333,-5.403438966,1,51,,,
10.688,334,11.36506118,1,51,,,
10.692,334,80.12369857,1,51,,,
10.696,334,25.81659558,1,51,,,
10.7,334,35.05388765,1,51,,,
10.704,334,135.1058417,1,51,,,
10.708,334,120.6448369,1,51,,,
10.712,334,83.05798402,1,51,,,
10.716,334,63.36808884,1,51,,,
10.72,335,-44.54856709,1,51,,,
10.724,335,-34.25201892,1,51,,,
10.728,335,74.72881707,1,51,,,
10.732,335,77.80646785,1,51,,,
10.736,335,60.33441331,1,51,,,
10.74,335,63.50881082,1,51,,,
10.744,335,48.13113536,1,51,,,
10.748,335,40.46269522,1,51,,,
10.752,336,97.07159038,1,51,,,
10.756,336,137.7902058,1,51,,,
10.76,336,79.66105753,1,51,,,
10.764,336,30.57609527,1,51,,,
10.768,336,76.29864696,1,51,,,
10.772,336,89.81408275,1,51,,,
10.776,336,48.02039161,1,51,,,
10.78,336,68.58726039,1,51,,,
10.784,337,-15.54069694,1,51,,,
10.788,337,-112.7268948,1,51,,,
10.792,337,29.56560371,1,51,,,
10.796,337,146.4823612,1,51,,,
10.8,337,148.2395939,1,51,,,
10.804,337,171.7013739,1,51,,,
10.808,337,101.324075,1,51,,,
10.812,337,-49.00835744,1,51,,,
10.816,338,-80.64654039,1,51,,,
10.82,338,81.37250188,1,51,,,
10.824,338,216.2620227,1,51,,,
10.828,338,212.046761,1,51,,,
10.832,338,194.9955136,1,51,,,
10.836,338,107.1045532,1,51,,,
10.84,338,2.69854041,1,51,,,
10.844,338,-17.31347644,1,51,,,
10.848,339,-36.0854187,1,51,,,
10.852,339,73.63396305,1,51,,,
10.856,339,171.8998139,1,51,,,
10.86,339,119.0763838,1,51,,,
10.864,339,161.5537543,1,51,,,
10.868,339,157.5035668,1,51,,,
10.872,339,-27.46592102,1,51,,,
10.876,339,-97.52620678,1,51,,,
10.88,340,4.251800434,1,51,,,
10.884,340,53.85466955,1,51,,,
10.888,340,40.39983138,1,51,,,
10.892,340,113.9214031,1,51,,,
10.896,340,204.8001521,1,51,,,
10.9,340,143.5268953,1,51,,,
10.904,340,48.58487262,1,51,,,
10.908,340,-9.619867033,1,51,,,
10.912,341,-60.45768103,1,51,,,
10.916,341,-82.46676177,1,51,,,
10.92,341,-93.16365717,1,51,,,
10.924,341,8.745910505,1,51,,,
10.928,341,131.4303404,1,51,,,
10.932,341,105.5782606,1,51,,,
10.936,341,127.130762,1,51,,,
10.94,341,184.2849542,1,51,,,
10.944,342,81.97921878,1,51,,,
10.948,342,7.57625281,1,51,,,
10.952,342,82.01064419,1,51,,,
10.956,342,103.2572877,1,51,,,
10.96,342,87.73030103,1,51,,,
10.964,342,100.7252165,1,51,,,
10.968,342,24.33535294,1,51,,,
10.972,342,-24.20886689,1,51,,,
10.976,343,47.61052863,1,51,,,
10.98,343,97.28008173,1,51,,,
10.984,343,85.86593408,1,51,,,
10.988,343,56.81572504,1,51,,,
10.992,343,57.24072895,1,51,,,
10.996,343,27.49126543,1,51,,,
11,343,-0.618870462,1,51,,,
11.004,343,2.011554599,1,51.00002189,,,
11.008,344,-94.31377496,1,50.99622409,,,
11.012,344,-76.37755535,1,51.00091135,,,
11.016,344,116.6971221,1,51.06552703,,,
11.02,344,172.689622,1,50.86412848,,,
11.024,344,118.6607818,1,50.26038337,,,
11.028,344,97.95201949,1,49.9396771,,,
11.032,344,6.983956482,1,49.98696338,,,
11.036,344,-71.05646756,1,50.00615404,,,
11.04,345,49.94352775,1,49.99978169,,,
11.044,345,159.8310003,1,50,,,
11.048,345,3.050950993,1,50,,,
11.052,345,-121.4156737,1,50,,,
11.056,345,11.16970975,1,50,,,
11.06,345,104.2620982,1,50,,,
11.064,345,84.25539628,1,50,,,
11.068,345,50.52068238,1,50,,,
11.072,346,-0.891692768,1,50,,,
11.076,346,-51.65610737,1,50,,,
11.08,346,-2.211406577,1,50,,,
11.084,346,133.9565243,1,50,,,
11.088,346,110.411147,1,50,,,
11.092,346,-5.385277131,1,50,,,
11.096,346,54.79729509,1,50,,,
11.1,346,65.0642909,1,50,,,
11.104,347,-65.05902802,1,50,,,
11.108,347,-57.2164014,1,50,,,
11.112,347,51.67677082,1,50,,,
11.116,347,95.27653835,1,50,,,
11.12,347,134.2952304,1,50,,,
11.124,347,157.8447995,1,50,,,
11.128,347,-43.84796664,1,50,,,
11.132,347,-169.3675682,1,50,,,
11.136,348,16.48811868,1,50,,,
11.14,348,116.8167448,1,50,,,
11.144,348,141.8099619,1,50,,,
11.148,348,200.6299867,1,50,,,
11.152,348,113.7577184,1,50,,,
11.156,348,5.657088366,1,50,,,
11.16,348,-17.78401463,1,50,,,
11.164,348,-47.78657728,1,50,,,
11.168,349,-2.607321769,1,50,,,
11.172,349,78.32476171,1,50,,,
11.176,349,127.7541095,1,50,,,
11.18,349,129.4338521,1,50,,,
11.184,349,45.93538019,1,50,,,
11.188,349,33.97372046,1,50,,,
11.192,349,18.7263616,1,50,,,
11.196,349,-29.35111387,1,50,,,
11.2,350,37.86649821,1,50,,,
11.204,350,13.9674235,1,50,,,
11.208,350,-74.11231349,1,50,,,
11.212,350,54.12391061,1,50,,,
11.216,350,128.0156635,1,50,,,
11.22,350,67.02547019,1,50,,,
11.224,350,88.84753769,1,50,,,
11.228,350,106.3013121,1,50,,,
11.232,351,37.02908874,1,50,,,
11.236,351,-26.75431177,1,50,,,
11.24,351,3.260928516,1,50,,,
11.244,351,56.78696841,1,50,,,
11.248,351,110.6981364,1,50,,,
11.252,351,179.2044743,1,50,,,
11.256,351,244.3730666,1,50,,,
11.26,351,247.9546222,1,50,,,
11.264,352,127.2184979,1,50,,,
11.268,352,44.88755406,1,50,,,
11.272,352,169.7096315,1,50,,,
11.276,352,271.5271231,1,50,,,
11.28,352,239.2098448,1,50,,,
11.284,352,283.6182296,1,50,,,
11.288,352,336.6683347,1,50,,,
11.292,352,272.2367534,1,50,,,
11.296,353,258.3539469,1,50,,,
11.3,353,324.889998,1,50,,,
11.304,353,351.0627547,1,50,,,
11.308,353,341.1820136,1,50,,,
11.312,353,344.538976,1,50,,,
11.316,353,346.9160305,1,50,,,
11.32,353,333.8943779,1,50,,,
11.324,353,364.1165543,1,50,,,
11.328,354,341.23538,1,50,,,
11.332,354,210.2685414,1,50,,,
11.336,354,161.229452,1,50,,,
11.34,354,141.5804577,1,50,,,
11.344,354,79.04934383,1,50,,,
11.348,354,120.9125392,1,50,,,
11.352,354,103.1146208,1,50,,,
11.356,354,-77.18543409,1,50,,,
11.36,355,-200.4834066,1,50,,,
11.364,355,-198.7758337,1,50,,,
11.368,355,-118.5766924,1,50,,,
11.372,355,-58.34246725,1,50,,,
11.376,355,-70.36237197,1,50,,,
11.38,355,-126.8271889,1,50,,,
11.384,355,-266.5603825,1,50,,,
11.388,355,-407.872646,1,50,,,
11.392,356,-443.931239,1,50,,,
11.396,356,-343.2657147,1,50,,,
11.4,356,-249.7043867,1,50,,,
11.404,356,-260.3140181,1,50,,,
11.408,356,-253.5467232,1,50,,,
11.412,356,-314.9549384,1,50,,,
11.416,356,-410.6647469,1,50,,,
11.42,356,-314.8421029,1,50,,,
11.424,357,-165.6729129,1,50,,,
11.428,357,-140.2171115,1,50,,,
11.432,357,-174.8406001,1,50,,,
11.436,357,-200.6717003,1,50,,,
11.44,357,-167.1072245,1,50,,,
11.444,357,-112.209053,1,50,,,
11.448,357,-101.3516349,1,50,,,
11.452,357,-113.709423,1,50,,,
11.456,358,-151.8474043,1,50,,,
11.46,358,-183.9847532,1,50,,,
11.464,358,-128.7324896,1,50,,,
11.468,358,-68.10454832,1,50,,,
11.472,358,-80.02670739,1,50,,,
11.476,358,-157.5262888,1,50,,,
11.48,358,-187.9547757,1,50,,,
11.484,358,-46.14731825,1,50,,,
11.488,359,55.62436821,1,50,,,
11.492,359,-4.497750641,1,50,,,
11.496,359,-36.9784662,1,50,,,
11.5,359,-3.486752988,1,50,,,
11.504,359,0.956374402,1,50,,,
11.508,359,24.888046,1,50,,,
11.512,359,69.77315419,1,50,,,
11.516,359,-8.509372945,1,50,,,
11.52,360,-97.46721784,1,50,,,
11.524,360,-27.36358142,1,50,,,
11.528,360,64.9577738,1,50,,,
11.532,360,111.016128,1,50,,,
11.536,360,135.776109,1,50,,,
11.54,360,91.18562311,1,50,,,
11.544,360,8.476758415,1,50,,,
11.548,360,-0.753416689,1,50,,,
11.552,361,63.59353638,1,50,,,
11.556,361,95.55830313,1,50,,,
11.56,361,108.5658902,1,50,,,
11.564,361,166.3077161,1,50,,,
11.568,361,152.8344148,1,50,,,
11.572,361,88.05743475,1,50,,,
11.576,361,126.8477538,1,50,,,
11.58,361,142.4698007,1,50,,,
11.584,362,40.29948209,1,50,,,
11.588,362,-45.85090727,1,50,,,
11.592,362,-13.87727137,1,50,,,
11.596,362,89.83707832,1,50,,,
11.6,362,125.703013,1,50,,,
11.604,362,145.5104464,1,50,,,
11.608,362,224.9233088,1,50,,,
11.612,362,201.4438523,1,50,,,
11.616,363,96.51411967,1,50,,,
11.62,363,65.85132884,1,50,,,
11.624,363,86.13898316,1,50,,,
11.628,363,73.89490128,1,50,,,
11.632,363,79.65849434,1,50,,,
11.636,363,172.4630599,1,50,,,
11.64,363,226.7671029,1,50,,,
11.644,363,158.9947722,1,50,,,
11.648,364,73.49371691,1,50,,,
11.652,364,23.84322873,1,50,,,
11.656,364,20.83235629,1,50,,,
11.66,364,33.09242288,1,50,,,
11.664,364,77.8853997,1,50,,,
11.668,364,164.2502836,1,50,,,
11.672,364,162.9182396,1,50,,,
11.676,364,83.5301037,1,50,,,
11.68,365,24.3421238,1,50,,,
11.684,365,6.955482369,1,50,,,
11.688,365,25.0867232,1,50,,,
11.692,365,98.70077905,1,50,,,
11.696,365,175.7266155,1,50,,,
11.7,365,151.5499235,1,50,,,
11.704,365,109.2789965,1,50,,,
11.708,365,78.9078837,1,50,,,
11.712,366,-21.59484298,1,50,,,
11.716,366,-12.73541632,1,50,,,
11.72,366,135.8525516,1,50,,,
11.724,366,139.1599751,1,50,,,
11.728,366,94.21333199,1,50,,,
11.732,366,134.6499415,1,50,,,
11.736,366,55.29431523,1,50,,,
11.74,366,-19.68187539,1,50,,,
11.744,367,117.0905442,1,50,,,
11.748,367,185.154921,1,50,,,
11.752,367,11.3633398,1,50,,,
11.756,367,-43.57815161,1,50,,,
11.76,367,73.91510544,1,50,,,
11.764,367,167.2153011,1,50,,,
11.768,367,198.5715207,1,50,,,
11.772,367,118.5598908,1,50,,,
11.776,368,77.33629786,1,50,,,
11.78,368,90.74034708,1,50,,,
11.784,368,88.41317365,1,50,,,
11.788,368,70.87002916,1,50,,,
11.792,368,13.16294835,1,50,,,
11.796,368,-37.15669526,1,50,,,
11.8,368,3.368479203,1,50,,,
11.804,368,153.6504953,1,50,,,
11.808,369,169.2069576,1,50,,,
11.812,369,46.00584025,1,50,,,
11.816,369,47.24935536,1,50,,,
11.82,369,100.2944401,1,50,,,
11.824,369,98.50867122,1,50,,,
11.828,369,99.97953679,1,50,,,
11.832,369,90.92582398,1,50,,,
11.836,369,34.60605078,1,50,,,
11.84,370,45.11718206,1,50,,,
11.844,370,135.3409622,1,50,,,
11.848,370,86.53914999,1,50,,,
11.852,370,-40.2180308,1,50,,,
11.856,370,3.563223334,1,50,,,
11.86,370,115.5324171,1,50,,,
11.864,370,134.727446,1,50,,,
11.868,370,96.64503816,1,50,,,
11.872,371,44.25176276,1,50,,,
11.876,371,-2.305111665,1,50,,,
11.88,371,-25.487778,1,50,,,
11.884,371,-43.25364784,1,50,,,
11.888,371,-32.92718829,1,50,,,
11.892,371,42.09600006,1,50,,,
11.896,371,87.68042956,1,50,,,
11.9,371,97.36696905,1,50,,,
11.904,372,92.48415907,1,50,,,
11.908,372,-1.4789879,1,50,,,
11.912,372,-52.45177437,1,50,,,
11.916,372,55.49175352,1,50,,,
11.92,372,143.0105536,1,50,,,
11.924,372,150.7238142,1,50,,,
11.928,372,121.289063,1,50,,,
11.932,372,24.44953922,1,50,,,
11.936,373,-33.61137742,1,50,,,
11.94,373,25.1356807,1,50,,,
11.944,373,52.71223978,1,50,,,
11.948,373,42.18377034,1,50,,,
11.952,373,49.40720748,1,50,,,
11.956,373,19.93890766,1,50,,,
11.96,373,-30.49689494,1,50,,,
11.964,373,-55.06423444,1,50,,,
11.968,374,-53.63858947,1,50,,,
11.972,374,-79.56686978,1,50,,,
11.976,374,-84.27519099,1,50,,,
11.98,374,-7.964705922,1,50,,,
11.984,374,40.20046624,1,50,,,
11.988,374,-8.421123443,1,50,,,
11.992,374,-66.91103797,1,50,,,
11.996,374,-50.49704572,1,50,,,
12,375,-0.299986981,1,50,,,
12.004,375,21.62388335,1,50.00006567,,,
12.008,375,34.21230171,1,49.98867228,,,
12.012,375,34.36463523,1,50.00273406,,,
12.016,375,-7.488551367,1,50.1965811,,,
12.02,375,-65.28301677,1,49.59238544,,,
12.024,375,-46.35538143,1,47.78115011,,,
12.028,375,17.6149248,1,46.81903129,,,
12.032,376,58.78683054,1,46.96089013,,,
12.036,376,106.204692,1,47.01846211,,,
12.04,376,125.1628685,1,46.99934507,,,
12.044,376,80.21291204,1,47,,,
12.048,376,31.64088828,1,47,,,
12.052,376,5.036217004,1,47,,,
12.056,376,-26.77634197,1,47,,,
12.06,376,-70.40584142,1,47,,,
12.064,377,-64.80846403,1,47,,,
12.068,377,44.25772021,1,47,,,
12.072,377,134.4296144,1,47,,,
12.076,377,127.7483633,1,47,,,
12.08,377,167.7431876,1,47,,,
12.084,377,183.921109,1,47,,,
12.088,377,95.59463349,1,47,,,
12.092,377,97.41713932,1,47,,,
12.096,378,105.0648771,1,47,,,
12.1,378,40.00223516,1,47,,,
12.104,378,66.14594314,1,47,,,
12.108,378,150.6631633,1,47,,,
12.112,378,155.3852364,1,47,,,
12.116,378,101.4526064,1,47,,,
12.12,378,59.72374967,1,47,,,
12.124,378,37.20838021,1,47,,,
12.128,379,60.17783119,1,47,,,
12.132,379,116.8554787,1,47,,,
12.136,379,127.7482659,1,47,,,
12.14,379,123.5732289,1,47,,,
12.144,379,118.0264624,1,47,,,
12.148,379,25.5797418,1,47,,,
12.152,379,-87.45721076,1,47,,,
12.156,379,-70.48564154,1,47,,,
12.16,380,42.80711835,1,47,,,
12.164,380,125.7656385,1,47,,,
12.168,380,171.3553573,1,47,,,
12.172,380,176.2796325,1,47,,,
12.176,380,130.2233532,1,47,,,
12.18,380,121.4156144,1,47,,,
12.184,380,125.6705522,1,47,,,
12.188,380,103.2900373,1,47,,,
12.192,381,101.11622,1,47,,,
12.196,381,9.231223188,1,47,,,
12.2,381,-79.14711695,1,47,,,
12.204,381,6.951640076,1,47,,,
12.208,381,103.813106,1,47,,,
12.212,381,122.0802162,1,47,,,
12.216,381,120.636295,1,47,,,
12.22,381,69.64743596,1,47,,,
12.224,382,25.54319106,1,47,,,
12.228,382,32.60018955,1,47,,,
12.232,382,31.17549444,1,47,,,
12.236,382,15.88796654,1,47,,,
12.24,382,9.413932611,1,47,,,
12.244,382,75.00688407,1,47,,,
12.248,382,194.3644863,1,47,,,
12.252,382,199.5094778,1,47,,,
12.256,383,98.58611231,1,47,,,
12.26,383,26.53194131,1,47,,,
12.264,383,-3.218785413,1,47,,,
12.268,383,11.75327364,1,47,,,
12.272,383,71.01418844,1,47,,,
12.276,383,71.18892929,1,47,,,
12.28,383,-26.72490758,1,47,,,
12.284,383,13.42567124,1,47,,,
12.288,384,115.8136177,1,47,,,
12.292,384,76.63337986,1,47,,,
12.296,384,76.89226744,1,47,,,
12.3,384,114.4396795,1,47,,,
12.304,384,61.87194055,1,47,,,
12.308,384,17.13639127,1,47,,,
12.312,384,33.43762171,1,47,,,
12.316,384,-4.600328248,1,47,,,
12.32,385,-120.0544947,1,47,,,
12.324,385,-96.01887024,1,47,,,
12.328,385,83.21340901,1,47,,,
12.332,385,142.5315913,1,47,,,
12.336,385,98.62530879,1,47,,,
12.34,385,91.07354695,1,47,,,
12.344,385,40.03396237,1,47,,,
12.348,385,8.196185126,1,47,,,
12.352,386,94.43554698,1,47,,,
12.356,386,127.206074,1,47,,,
12.36,386,46.91889667,1,47,,,
12.364,386,-26.79217716,1,47,,,
12.368,386,-10.99260026,1,47,,,
12.372,386,61.84525232,1,47,,,
12.376,386,44.11461908,1,47,,,
12.38,386,-1.056489472,1,47,,,
12.384,387,40.37389796,1,47,,,
12.388,387,57.67914132,1,47,,,
12.392,387,73.52969747,1,47,,,
12.396,387,120.9077548,1,47,,,
12.4,387,101.6753901,1,47,,,
12.404,387,-5.811831657,1,47,,,
12.408,387,-54.16600335,1,47,,,
12.412,387,3.627719408,1,47,,,
12.416,388,12.99623834,1,47,,,
12.42,388,15.61778104,1,47,,,
12.424,388,53.11348309,1,47,,,
12.428,388,34.02979756,1,47,,,
12.432,388,-26.49608206,1,47,,,
12.436,388,-62.98472167,1,47,,,
12.44,388,-48.01860612,1,47,,,
12.444,388,-32.76271174,1,47,,,
12.448,389,-5.418860856,1,47,,,
12.452,389,32.78669685,1,47,,,
12.456,389,-17.85633831,1,47,,,
12.46,389,-68.73756044,1,47,,,
12.464,389,-14.35930287,1,47,,,
12.468,389,47.96765575,1,47,,,
12.472,389,5.656500014,1,47,,,
12.476,389,-82.40332118,1,47,,,
12.48,390,-78.97820975,1,47,,,
12.484,390,-83.98344521,1,47,,,
12.488,390,-65.52169639,1,47,,,
12.492,390,122.6086725,1,47,,,
12.496,390,222.4026908,1,47,,,
12.5,390,176.5764795,1,47,,,
12.504,390,118.1989141,1,47,,,
12.508,390,59.25128766,1,47,,,
12.512,391,43.03310587,1,47,,,
12.516,391,43.0760494,1,47,,,
12.52,391,31.94783009,1,47,,,
12.524,391,-19.05453483,1,47,,,
12.528,391,-84.58836067,1,47,,,
12.532,391,-13.41705671,1,47,,,
12.536,391,139.7405323,1,47,,,
12.54,391,180.5631846,1,47,,,
12.544,392,158.7275855,1,47,,,
12.548,392,118.8450497,1,47,,,
12.552,392,55.75964734,1,47,,,
12.556,392,20.66863909,1,47,,,
12.56,392,15.66951664,1,47,,,
12.564,392,14.78999659,1,47,,,
12.568,392,19.77931211,1,47,,,
12.572,392,40.97820909,1,47,,,
12.576,393,37.75714174,1,47,,,
12.58,393,-1.342317791,1,47,,,
12.584,393,3.662465273,1,47,,,
12.588,393,41.22991579,1,47,,,
12.592,393,29.50908301,1,47,,,
12.596,393,-11.19021417,1,47,,,
12.6,393,19.53027172,1,47,,,
12.604,393,87.97035215,1,47,,,
12.608,394,92.48853373,1,47,,,
12.612,394,50.78852593,1,47,,,
12.616,394,-6.345804561,1,47,,,
12.62,394,-5.125319766,1,47,,,
12.624,394,68.83915643,1,47,,,
12.628,394,134.8773192,1,47,,,
12.632,394,163.5068287,1,47,,,
12.636,394,122.4387469,1,47,,,
12.64,395,84.70765739,1,47,,,
12.644,395,100.8782494,1,47,,,
12.648,395,96.9217431,1,47,,,
12.652,395,64.63366827,1,47,,,
12.656,395,16.38761273,1,47,,,
12.66,395,23.95714049,1,47,,,
12.664,395,79.09762464,1,47,,,
12.668,395,76.30324957,1,47,,,
12.672,396,34.33720732,1,47,,,
12.676,396,21.68419189,1,47,,,
12.68,396,13.59141259,1,47,,,
12.684,396,-22.90815878,1,47,,,
12.688,396,-46.28321604,1,47,,,
12.692,396,11.427052,1,47,,,
12.696,396,153.8031036,1,47,,,
12.7,396,238.7948916,1,47,,,
12.704,397,194.9192175,1,47,,,
12.708,397,120.5015997,1,47,,,
12.712,397,59.11533184,1,47,,,
12.716,397,4.550140893,1,47,,,
12.72,397,-3.68116971,1,47,,,
12.724,397,26.60495414,1,47,,,
12.728,397,-7.09059223,1,47,,,
12.732,397,-58.38449062,1,47,,,
12.736,398,-10.00217978,1,47,,,
12.74,398,44.86897467,1,47,,,
12.744,398,41.86661637,1,47,,,
12.748,398,7.168976779,1,47,,,
12.752,398,5.388954855,1,47,,,
12.756,398,23.2413024,1,47,,,
12.76,398,23.30444213,1,47,,,
12.764,398,74.60136411,1,47,,,
12.768,399,111.063812,1,47,,,
12.772,399,54.93790275,1,47,,,
12.776,399,23.17611544,1,47,,,
12.78,399,27.98985366,1,47,,,
12.784,399,0.900328192,1,47,,,
12.788,399,-1.515180509,1,47,,,
12.792,399,45.26885,1,47,,,
12.796,399,70.32762198,1,47,,,
12.8,400,30.73819536,1,47,,,
12.804,400,25.22098936,1,47,,,
12.808,400,75.36466541,1,47,,,
12.812,400,80.60730527,1,47,,,
12.816,400,50.48893095,1,47,,,
12.82,400,42.61817451,1,47,,,
12.824,400,67.79060418,1,47,,,
12.828,400,92.55827368,1,47,,,
12.832,401,72.3188966,1,47,,,
12.836,401,74.45091775,1,47,,,
12.84,401,103.6693945,1,47,,,
12.844,401,61.79301743,1,47,,,
12.848,401,25.611153,1,47,,,
12.852,401,84.27122357,1,47,,,
12.856,401,101.1543379,1,47,,,
12.86,401,65.43096526,1,47,,,
12.864,402,45.28166433,1,47,,,
12.868,402,-30.21908808,1,47,,,
12.872,402,-96.93013346,1,47,,,
12.876,402,-19.84379189,1,47,,,
12.88,402,111.0666499,1,47,,,
12.884,402,171.2438431,1,47,,,
12.888,402,122.295996,1,47,,,
12.892,402,25.40552876,1,47,,,
12.896,403,4.972156992,1,47,,,
12.9,403,15.41553544,1,47,,,
12.904,403,-17.84747556,1,47,,,
12.908,403,-51.30082683,1,47,,,
12.912,403,-3.876685103,1,47,,,
12.916,403,80.89357064,1,47,,,
12.92,403,145.5745097,1,47,,,
12.924,403,160.4196145,1,47,,,
12.928,404,99.27937169,1,47,,,
12.932,404,55.3623354,1,47,,,
12.936,404,36.59534072,1,47,,,
12.94,404,-17.5653177,1,47,,,
12.944,404,-39.76629029,1,47,,,
12.948,404,13.78054893,1,47,,,
12.952,404,110.6865893,1,47,,,
12.956,404,146.6541394,1,47,,,
12.96,405,70.67024444,1,47,,,
12.964,405,36.71718069,1,47,,,
12.968,405,95.13337962,1,47,,,
12.972,405,93.92242314,1,47,,,
12.976,405,94.31052949,1,47,,,
12.98,405,155.2564212,1,47,,,
12.984,405,121.1558812,1,47,,,
12.988,405,36.30691865,1,47,,,
12.992,406,1.126669301,1,47,,,
12.996,406,-7.334726135,1,47,,,
13,406,15.78171078,1,47,,,
13.004,406,66.53424922,1,46.99969356,,,
13.008,406,40.17997989,1,47.05286269,,,
13.012,406,-116.3958232,1,46.98724103,,,
13.016,406,-139.652008,1,46.08262152,,,
13.02,406,48.79320508,1,48.9022013,,,
13.024,407,159.9854369,1,57.3546328,,,
13.028,407,163.0998646,1,61.84452065,,,
13.032,407,92.92286624,1,61.18251274,,,
13.036,407,-26.70545894,1,60.9138435,,,
13.04,407,-45.39891986,1,61.00305632,,,
13.044,407,20.75588557,1,61,,,
13.048,407,29.48363438,1,61,,,
13.052,407,-15.65177374,1,61,,,
13.056,408,-39.63991826,1,61,,,
13.06,408,5.407097219,1,61,,,
13.064,408,37.14943179,1,61,,,
13.068,408,-7.738722897,1,61,,,
13.072,408,-10.10818842,1,61,,,
13.076,408,57.20706082,1,61,,,
13.08,408,103.8329171,1,61,,,
13.084,408,65.19398874,1,61,,,
13.088,409,3.58361306,1,61,,,
13.092,409,-12.658695,1,61,,,
13.096,409,-22.36348647,1,61,,,
13.1,409,-21.69776552,1,61,,,
13.104,409,50.07492023,1,61,,,
13.108,409,123.6003166,1,61,,,
13.112,409,142.7490925,1,61,,,
13.116,409,137.9337245,1,61,,,
13.12,410,24.25772543,1,61,,,
13.124,410,-111.753515,1,61,,,
13.128,410,-72.05564678,1,61,,,
13.132,410,41.18856109,1,61,,,
13.136,410,129.013833,1,61,,,
13.14,410,168.6717733,1,61,,,
13.144,410,119.6887492,1,61,,,
13.148,410,0.581833593,1,61,,,
13.152,411,-59.0349405,1,61,,,
13.156,411,29.92972043,1,61,,,
13.16,411,97.50564452,1,61,,,
13.164,411,82.86475761,1,61,,,
13.168,411,69.45921607,1,61,,,
13.172,411,31.93573947,1,61,,,
13.176,411,-19.93909652,1,61,,,
13.18,411,-10.91649442,1,61,,,
13.184,412,38.79685445,1,61,,,
13.188,412,54.49693658,1,61,,,
13.192,412,15.4494923,1,61,,,
13.196,412,14.42557912,1,61,,,
13.2,412,49.87036044,1,61,,,
13.204,412,-4.811026457,1,61,,,
13.208,412,-73.51736462,1,61,,,
13.212,412,-14.64438888,1,61,,,
13.216,413,28.2064996,1,61,,,
13.22,413,-41.21937937,1,61,,,
13.224,413,2.583168499,1,61,,,
13.228,413,147.2581862,1,61,,,
13.232,413,162.5284087,1,61,,,
13.236,413,148.5734823,1,61,,,
13.24,413,153.6481105,1,61,,,
13.244,413,34.6381248,1,61,,,
13.248,414,-110.8321636,1,61,,,
13.252,414,-59.66683129,1,61,,,
13.256,414,72.06780506,1,61,,,
13.26,414,69.11115924,1,61,,,
13.264,414,59.98872642,1,61,,,
13.268,414,99.80899566,1,61,,,
13.272,414,91.4062095,1,61,,,
13.276,414,55.12606497,1,61,,,
13.28,415,39.17451778,1,61,,,
13.284,415,26.5605379,1,61,,,
13.288,415,-21.42570711,1,61,,,
13.292,415,-49.18451361,1,61,,,
13.296,415,20.14306542,1,61,,,
13.3,415,82.00419319,1,61,,,
13.304,415,77.70148041,1,61,,,
13.308,415,52.3690614,1,61,,,
13.312,416,-3.363845834,1,61,,,
13.316,416,-32.24586823,1,61,,,
13.32,416,14.44077594,1,61,,,
13.324,416,41.56902189,1,61,,,
13.328,416,49.56213465,1,61,,,
13.332,416,78.24406764,1,61,,,
13.336,416,62.33357885,1,61,,,
13.34,416,7.145159701,1,61,,,
13.344,417,-18.48103032,1,61,,,
13.348,417,22.84014411,1,61,,,
13.352,417,78.01167248,1,61,,,
13.356,417,106.7464558,1,61,,,
13.36,417,140.8499114,1,61,,,
13.364,417,117.3655277,1,61,,,
13.368,417,45.2412507,1,61,,,
13.372,417,11.9532484,1,61,,,
13.376,418,-11.39426248,1,61,,,
13.38,418,14.72789813,1,61,,,
13.384,418,62.44871729,1,61,,,
13.388,418,71.15330681,1,61,,,
13.392,418,93.66742181,1,61,,,
13.396,418,95.66250344,1,61,,,
13.4,418,46.79312746,1,61,,,
13.404,418,8.566050731,1,61,,,
13.408,419,2.581757909,1,61,,,
13.412,419,-8.332343742,1,61,,,
13.416,419,-50.38565777,1,61,,,
13.42,419,-51.94856508,1,61,,,
13.424,419,10.49276113,1,61,,,
13.428,419,25.33709033,1,61,,,
13.432,419,-39.86787095,1,61,,,
13.436,419,-31.30250225,1,61,,,
13.44,420,54.1079187,1,61,,,
13.444,420,111.6611406,1,61,,,
13.448,420,181.175575,1,61,,,
13.452,420,189.8765841,1,61,,,
13.456,420,83.34997626,1,61,,,
13.46,420,-1.912162209,1,61,,,
13.464,420,27.98482082,1,61,,,
13.468,420,83.68469815,1,61,,,
13.472,421,57.49891886,1,61,,,
13.476,421,-3.309606622,1,61,,,
13.48,421,-7.793470942,1,61,,,
13.484,421,-1.173149538,1,61,,,
13.488,421,-16.45549148,1,61,,,
13.492,421,-37.48227489,1,61,,,
13.496,421,-124.951823,1,61,,,
13.5,421,-166.8596625,1,61,,,
13.504,422,-28.83526983,1,61,,,
13.508,422,105.8087054,1,61,,,
13.512,422,157.9920039,1,61,,,
13.516,422,146.2722232,1,61,,,
13.52,422,48.12352183,1,61,,,
13.524,422,-34.28656495,1,61,,,
13.528,422,-87.65255987,1,61,,,
13.532,422,-91.12775075,1,61,,,
13.536,423,10.77732583,1,61,,,
13.54,423,72.27500769,1,61,,,
13.544,423,64.98034257,1,61,,,
13.548,423,75.67017294,1,61,,,
13.552,423,53.17797748,1,61,,,
13.556,423,-11.34047035,1,61,,,
13.56,423,-53.98774637,1,61,,,
13.564,423,-14.75474467,1,61,,,
13.568,424,70.82574877,1,61,,,
13.572,424,115.1128577,1,61,,,
13.576,424,144.7319485,1,61,,,
13.58,424,179.1215243,1,61,,,
13.584,424,101.0954188,1,61,,,
13.588,424,-58.12783101,1,61,,,
13.592,424,-91.23454253,1,61,,,
13.596,424,24.82636565,1,61,,,
13.6,425,111.668799,1,61,,,
13.604,425,112.1630952,1,61,,,
13.608,425,89.44813194,1,61,,,
13.612,425,55.37153359,1,61,,,
13.616,425,53.93525634,1,61,,,
13.62,425,95.98360961,1,61,,,
13.624,425,83.94481806,1,61,,,
13.628,425,18.95495109,1,61,,,
13.632,426,-12.63751052,1,61,,,
13.636,426,45.12747753,1,61,,,
13.64,426,131.4635795,1,61,,,
13.644,426,136.2216366,1,61,,,
13.648,426,90.16681124,1,61,,,
13.652,426,46.31825404,1,61,,,
13.656,426,20.29497574,1,61,,,
13.66,426,10.13907914,1,61,,,
13.664,427,57.32640349,1,61,,,
13.668,427,57.18522043,1,61,,,
13.672,427,-34.51844972,1,61,,,
13.676,427,1.093635412,1,61,,,
13.68,427,110.844857,1,61,,,
13.684,427,115.3943524,1,61,,,
13.688,427,87.6455648,1,61,,,
13.692,427,73.2646189,1,61,,,
13.696,428,45.03445854,1,61,,,
13.7,428,45.20390355,1,61,,,
13.704,428,96.09535779,1,61,,,
13.708,428,102.5662632,1,61,,,
13.712,428,40.25348127,1,61,,,
13.716,428,1.085119173,1,61,,,
13.72,428,-0.29195797,1,61,,,
13.724,428,-14.36132388,1,61,,,
13.728,429,-18.80090532,1,61,,,
13.732,429,52.15119166,1,61,,,
13.736,429,123.6661013,1,61,,,
13.74,429,137.862917,1,61,,,
13.744,429,91.65159351,1,61,,,
13.748,429,12.30047224,1,61,,,
13.752,429,4.315466727,1,61,,,
13.756,429,18.3828831,1,61,,,
13.76,430,8.056272898,1,61,,,
13.764,430,37.83268228,1,61,,,
13.768,430,7.397217487,1,61,,,
13.772,430,-77.52196286,1,61,,,
13.776,430,-22.81055979,1,61,,,
13.78,430,112.2341193,1,61,,,
13.784,430,151.748632,1,61,,,
13.788,430,142.5690769,1,61,,,
13.792,431,123.6634186,1,61,,,
13.796,431,32.28052509,1,61,,,
13.8,431,-43.21686963,1,61,,,
13.804,431,41.64934075,1,61,,,
13.808,431,145.0128302,1,61,,,
13.812,431,162.6601917,1,61,,,
13.816,431,128.6048123,1,61,,,
13.82,431,17.51954826,1,61,,,
13.824,432,-42.34393919,1,61,,,
13.828,432,16.55443602,1,61,,,
13.832,432,96.47996324,1,61,,,
13.836,432,128.4621027,1,61,,,
13.84,432,90.97521704,1,61,,,
13.844,432,29.81729521,1,61,,,
13.848,432,26.10250913,1,61,,,
13.852,432,66.4660094,1,61,,,
13.856,433,61.66520092,1,61,,,
13.86,433,50.90787964,1,61,,,
13.864,433,80.56323214,1,61,,,
13.868,433,52.03191416,1,61,,,
13.872,433,11.39293369,1,61,,,
13.876,433,-17.30952764,1,61,,,
13.88,433,-53.71824158,1,61,,,
13.884,433,-10.5225913,1,61,,,
13.888,434,67.56130252,1,61,,,
13.892,434,99.14601625,1,61,,,
13.896,434,109.1547076,1,61,,,
13.9,434,131.3408246,1,61,,,
13.904,434,146.8945754,1,61,,,
13.908,434,116.8054115,1,61,,,
13.912,434,70.14914228,1,61,,,
13.916,434,81.70579941,1,61,,,
13.92,435,127.0509306,1,61,,,
13.924,435,161.0490885,1,61,,,
13.928,435,183.0182557,1,61,,,
13.932,435,188.0872309,1,61,,,
13.936,435,224.1363979,1,61,,,
13.94,435,298.704969,1,61,,,
13.944,435,309.4213266,1,61,,,
13.948,435,295.9138732,1,61,,,
13.952,436,336.8184588,1,61,,,
13.956,436,388.5728971,1,61,,,
13.96,436,425.0511388,1,61,,,
13.964,436,453.0287318,1,61,,,
13.968,436,438.5791088,1,61,,,
13.972,436,379.1984038,1,61,,,
13.976,436,298.5580926,1,61,,,
13.98,436,235.4889947,1,61,,,
13.984,437,217.2714588,1,61,,,
13.988,437,185.2509026,1,61,,,
13.992,437,132.7859949,1,61,,,
13.996,437,63.38053706,1,61,,,
14,437,-50.1991182,1,61,,,
14.004,437,-122.4632344,1,61.00017511,,,
14.008,437,-100.2855883,1,60.96979275,,,
14.012,437,-86.48945765,1,61.00729084,,,
14.016,438,-107.0053959,1,61.52421627,,,
14.02,438,-100.370051,1,59.91302783,,,
14.024,438,-111.5334362,1,55.08306697,,,
14.028,438,-160.7466488,1,52.51741677,,,
14.032,438,-173.5719221,1,52.895707,,,
14.036,438,-180.5870707,1,53.04923229,,,
14.04,438,-236.2219173,1,52.99825353,,,
14.044,438,-298.9379156,1,53,,,
14.048,439,-292.4052894,1,53,,,
14.052,439,-264.2144585,1,53,,,
14.056,439,-247.0860549,1,53,,,
14.06,439,-213.9348699,1,53,,,
14.064,439,-197.5578084,1,53,,,
14.068,439,-214.0573581,1,53,,,
14.072,439,-233.2381409,1,53,,,
14.076,439,-257.801083,1,53,,,
14.08,440,-265.2958679,1,53,,,
14.084,440,-206.240407,1,53,,,
14.088,440,-161.3065828,1,53,,,
14.092,440,-151.4154305,1,53,,,
14.096,440,-128.2110271,1,53,,,
14.1,440,-110.3191079,1,53,,,
14.104,440,-102.568481,1,53,,,
14.108,440,-79.96860406,1,53,,,
14.112,441,-55.09612264,1,53,,,
14.116,441,-74.01133293,1,53,,,
14.12,441,-136.0166709,1,53,,,
14.124,441,-168.0897235,1,53,,,
14.128,441,-163.0649347,1,53,,,
14.132,441,-131.8177069,1,53,,,
14.136,441,-82.27257449,1,53,,,
14.14,441,-41.96590873,1,53,,,
14.144,442,-32.99514062,1,53,,,
14.148,442,-35.93573146,1,53,,,
14.152,442,8.487539619,1,53,,,
14.156,442,38.04804351,1,53,,,
14.16,442,33.93216788,1,53,,,
14.164,442,63.8047274,1,53,,,
14.168,442,79.18760944,1,53,,,
14.172,442,49.99538554,1,53,,,
14.176,443,13.47970695,1,53,,,
14.18,443,-9.083202599,1,53,,,
14.184,443,-35.79344295,1,53,,,
14.188,443,-73.2809503,1,53,,,
14.192,443,-70.17956032,1,53,,,
14.196,443,0.830690856,1,53,,,
14.2,443,62.98274023,1,53,,,
14.204,443,55.65106422,1,53,,,
14.208,444,49.58332808,1,53,,,
14.212,444,69.20388361,1,53,,,
14.216,444,75.9019041,1,53,,,
14.22,444,58.06657517,1,53,,,
14.224,444,55.27659826,1,53,,,
14.228,444,77.35215762,1,53,,,
14.232,444,88.12708201,1,53,,,
14.236,444,93.5436786,1,53,,,
14.24,445,88.09042808,1,53,,,
14.244,445,13.49172806,1,53,,,
14.248,445,-39.10221503,1,53,,,
14.252,445,40.91571594,1,53,,,
14.256,445,152.8856212,1,53,,,
14.26,445,193.3789894,1,53,,,
14.264,445,150.0495395,1,53,,,
14.268,445,62.27966384,1,53,,,
14.272,446,9.416536999,1,53,,,
14.276,446,12.80913398,1,53,,,
14.28,446,21.74939376,1,53,,,
14.284,446,14.649948,1,53,,,
14.288,446,-1.398302121,1,53,,,
14.292,446,-15.79849945,1,53,,,
14.296,446,-30.68153529,1,53,,,
14.3,446,-54.69553747,1,53,,,
14.304,447,-60.52780471,1,53,,,
14.308,447,9.263077631,1,53,,,
14.312,447,100.8322458,1,53,,,
14.316,447,161.087207,1,53,,,
14.32,447,184.4515702,1,53,,,
14.324,447,158.7388956,1,53,,,
14.328,447,106.6832898,1,53,,,
14.332,447,44.3643307,1,53,,,
14.336,448,39.16131256,1,53,,,
14.34,448,86.19134469,1,53,,,
14.344,448,89.51979807,1,53,,,
14.348,448,86.02602008,1,53,,,
14.352,448,84.82129973,1,53,,,
14.356,448,64.76861778,1,53,,,
14.36,448,84.54647267,1,53,,,
14.364,448,94.22543492,1,53,,,
14.368,449,62.84324515,1,53,,,
14.372,449,35.03562658,1,53,,,
14.376,449,31.46289377,1,53,,,
14.38,449,72.267603,1,53,,,
14.384,449,75.57874188,1,53,,,
14.388,449,38.30919186,1,53,,,
14.392,449,60.36012647,1,53,,,
14.396,449,99.76090554,1,53,,,
14.4,450,131.8978,1,53,,,
14.404,450,159.3239575,1,53,,,
14.408,450,138.8260348,1,53,,,
14.412,450,41.74280899,1,53,,,
14.416,450,-27.3501481,1,53,,,
14.42,450,-7.763272617,1,53,,,
14.424,450,-15.44085302,1,53,,,
14.428,450,-68.16068374,1,53,,,
14.432,451,-75.40665504,1,53,,,
14.436,451,-48.79826737,1,53,,,
14.44,451,-48.38636459,1,53,,,
14.444,451,-72.57989691,1,53,,,
14.448,451,-83.96699725,1,53,,,
14.452,451,-69.79467936,1,53,,,
14.456,451,-45.13077965,1,53,,,
14.46,451,-21.30112358,1,53,,,
14.464,452,-4.353258674,1,53,,,
14.468,452,-6.493820276,1,53,,,
14.472,452,-30.3405965,1,53,,,
14.476,452,-33.62353625,1,53,,,
14.48,452,8.68730147,1,53,,,
14.484,452,63.18564478,1,53,,,
14.488,452,86.43863744,1,53,,,
14.492,452,89.40063468,1,53,,,
14.496,453,89.58497145,1,53,,,
14.5,453,75.59508203,1,53,,,
14.504,453,30.11648647,1,53,,,
14.508,453,26.78056472,1,53,,,
14.512,453,82.01747807,1,53,,,
14.516,453,114.5753731,1,53,,,
14.52,453,124.3143331,1,53,,,
14.524,453,128.7277973,1,53,,,
14.528,454,123.3854832,1,53,,,
14.532,454,104.523104,1,53,,,
14.536,454,47.93232019,1,53,,,
14.54,454,39.5078153,1,53,,,
14.544,454,100.0955817,1,53,,,
14.548,454,66.18772103,1,53,,,
14.552,454,41.25449083,1,53,,,
14.556,454,121.8884625,1,53,,,
14.56,455,134.1075769,1,53,,,
14.564,455,134.5015025,1,53,,,
14.568,455,179.1617019,1,53,,,
14.572,455,150.585631,1,53,,,
14.576,455,84.12390312,1,53,,,
14.58,455,62.57948182,1,53,,,
14.584,455,83.83861786,1,53,,,
14.588,455,89.48027078,1,53,,,
14.592,456,74.82279241,1,53,,,
14.596,456,65.0530087,1,53,,,
14.6,456,75.87789566,1,53,,,
14.604,456,97.24152968,1,53,,,
14.608,456,96.72661893,1,53,,,
14.612,456,93.55407931,1,53,,,
14.616,456,105.1774949,1,53,,,
14.62,456,111.3358782,1,53,,,
14.624,457,107.2160274,1,53,,,
14.628,457,104.360129,1,53,,,
14.632,457,107.1987017,1,53,,,
14.636,457,99.69189738,1,53,,,
14.64,457,93.11786792,1,53,,,
14.644,457,97.7677977,1,53,,,
14.648,457,79.89068494,1,53,,,
14.652,457,23.19019025,1,53,,,
14.656,458,-1.359394675,1,53,,,
14.66,458,43.74204373,1,53,,,
14.664,458,75.14017059,1,53,,,
14.668,458,83.23192831,1,53,,,
14.672,458,92.24541704,1,53,,,
14.676,458,108.2034743,1,53,,,
14.68,458,115.8873585,1,53,,,
14.684,458,94.1555186,1,53,,,
14.688,459,81.35271302,1,53,,,
14.692,459,76.12503341,1,53,,,
14.696,459,42.89072804,1,53,,,
14.7,459,20.02949599,1,53,,,
14.704,459,10.8068431,1,53,,,
14.708,459,7.378795936,1,53,,,
14.712,459,18.10698035,1,53,,,
14.716,459,32.83438943,1,53,,,
14.72,460,75.90027911,1,53,,,
14.724,460,123.3390479,1,53,,,
14.728,460,129.7476756,1,53,,,
14.732,460,97.59949957,1,53,,,
14.736,460,69.91274918,1,53,,,
14.74,460,77.41411757,1,53,,,
14.744,460,72.9112974,1,53,,,
14.748,460,53.94197105,1,53,,,
14.752,461,53.57256795,1,53,,,
14.756,461,17.90465022,1,53,,,
14.76,461,-19.72957275,1,53,,,
14.764,461,-2.127245894,1,53,,,
14.768,461,17.25196408,1,53,,,
14.772,461,16.17490554,1,53,,,
14.776,461,19.85378434,1,53,,,
14.78,461,23.51096315,1,53,,,
14.784,462,39.15287089,1,53,,,
14.788,462,28.19489185,1,53,,,
14.792,462,-5.704103154,1,53,,,
14.796,462,-6.307931213,1,53,,,
14.8,462,-6.85310886,1,53,,,
14.804,462,-4.093939815,1,53,,,
14.808,462,17.22648335,1,53,,,
14.812,462,23.46818542,1,53,,,
14.816,463,18.31831259,1,53,,,
14.82,463,18.81145376,1,53,,,
14.824,463,54.06469784,1,53,,,
14.828,463,100.8586332,1,53,,,
14.832,463,86.40928559,1,53,,,
14.836,463,62.52974951,1,53,,,
14.84,463,60.09266819,1,53,,,
14.844,463,25.00274629,1,53,,,
14.848,464,3.172283641,1,53,,,
14.852,464,48.18803749,1,53,,,
14.856,464,82.84134739,1,53,,,
14.86,464,80.82689545,1,53,,,
14.864,464,81.19094915,1,53,,,
14.868,464,76.57329641,1,53,,,
14.872,464,70.33898585,1,53,,,
14.876,464,69.64362303,1,53,,,
14.88,465,22.04441588,1,53,,,
14.884,465,-26.06104112,1,53,,,
14.888,465,-8.488014462,1,53,,,
14.892,465,14.51708357,1,53,,,
14.896,465,11.80905263,1,53,,,
14.9,465,-4.797551051,1,53,,,
14.904,465,17.48285576,1,53,,,
14.908,465,107.3777923,1,53,,,
14.912,466,163.2275494,1,53,,,
14.916,466,163.4209391,1,53,,,
14.92,466,155.6245375,1,53,,,
14.924,466,117.8883085,1,53,,,
14.928,466,77.37208888,1,53,,,
14.932,466,71.34343104,1,53,,,
14.936,466,56.30963169,1,53,,,
14.94,466,9.488492512,1,53,,,
14.944,467,-6.765278456,1,53,,,
14.948,467,23.717553,1,53,,,
14.952,467,58.08188087,1,53,,,
14.956,467,47.39726559,1,53,,,
14.96,467,25.06303449,1,53,,,
14.964,467,45.15275885,1,53,,,
14.968,467,76.56417156,1,53,,,
14.972,467,109.2710056,1,53,,,
14.976,468,142.0355164,1,53,,,
14.98,468,132.2382727,1,53,,,
14.984,468,72.82008427,1,53,,,
14.988,468,-24.24586861,1,53,,,
14.992,468,-50.82324779,1,53,,,
14.996,468,20.89473231,1,53,,,
15,468,53.21221505,1,53,,,
15.004,468,52.29571428,0.999934335,52.99982489,,,
15.008,469,56.89435243,1.01132772,53.03020725,,,
15.012,469,40.39742669,0.997265935,52.99270916,,,
15.016,469,28.9645844,0.803418898,52.47578373,,,
15.02,469,38.54757287,1.407614564,54.08697217,,,
15.024,469,41.31474599,3.218849887,58.91693303,,,
15.028,469,24.67050874,4.180968711,61.48258323,,,
15.032,469,-8.962423517,4.039109873,61.104293,,,
15.036,469,-30.16888505,3.981537893,60.95076771,,,
15.04,470,-11.73476235,4.000654926,61.00174647,,,
15.044,470,27.83083376,4,61,,,
15.048,470,33.38191547,4,61,,,
15.052,470,12.44644327,4,61,,,
15.056,470,18.59409018,4,61,,,
15.06,470,39.06503341,4,61,,,
15.064,470,20.75093959,4,61,,,
15.068,470,29.21229913,4,61,,,
15.072,471,83.62885635,4,61,,,
15.076,471,82.8818079,4,61,,,
15.08,471,43.58347081,4,61,,,
15.084,471,31.24093401,4,61,,,
15.088,471,37.10224401,4,61,,,
15.092,471,39.6271012,4,61,,,
15.096,471,41.27563623,4,61,,,
15.1,471,17.1942876,4,61,,,
15.104,472,-47.677547,4,61,,,
15.108,472,-77.9820172,4,61,,,
15.112,472,-38.13778228,4,61,,,
15.116,472,10.56477194,4,61,,,
15.12,472,40.05087044,4,61,,,
15.124,472,36.43908267,4,61,,,
15.128,472,3.152241828,4,61,,,
15.132,472,-14.52164862,4,61,,,
15.136,473,-2.966278607,4,61,,,
15.14,473,-10.51693894,4,61,,,
15.144,473,5.265559498,4,61,,,
15.148,473,71.00035491,4,61,,,
15.152,473,119.0053952,4,61,,,
15.156,473,133.0634479,4,61,,,
15.16,473,117.4852186,4,61,,,
15.164,473,85.51146774,4,61,,,
15.168,474,66.27414683,4,61,,,
15.172,474,46.83438701,4,61,,,
15.176,474,40.23209539,4,61,,,
15.18,474,56.97864406,4,61,,,
15.184,474,66.31879627,4,61,,,
15.188,474,83.87341491,4,61,,,
15.192,474,81.22991165,4,61,,,
15.196,474,29.35390782,4,61,,,
15.2,475,13.09069392,4,61,,,
15.204,475,50.86464945,4,61,,,
15.208,475,70.63590004,4,61,,,
15.212,475,58.38245476,4,61,,,
15.216,475,31.03351425,4,61,,,
15.22,475,15.23397892,4,61,,,
15.224,475,25.76279924,4,61,,,
15.228,475,53.8840378,4,61,,,
15.232,476,65.81390598,4,61,,,
15.236,476,52.8830129,4,61,,,
15.24,476,39.25586647,4,61,,,
15.244,476,23.2297208,4,61,,,
15.248,476,-2.220702798,4,61,,,
15.252,476,-0.711176789,4,61,,,
15.256,476,21.29335998,4,61,,,
15.26,476,24.00655293,4,61,,,
15.264,477,12.85131803,4,61,,,
15.268,477,30.54983891,4,61,,,
15.272,477,69.30887702,4,61,,,
15.276,477,96.47835855,4,61,,,
15.28,477,126.4937136,4,61,,,
15.284,477,138.8542601,4,61,,,
15.288,477,106.4762527,4,61,,,
15.292,477,67.08806649,4,61,,,
15.296,478,59.32577811,4,61,,,
15.3,478,62.76626129,4,61,,,
15.304,478,58.81615261,4,61,,,
15.308,478,43.39876807,4,61,,,
15.312,478,40.79421489,4,61,,,
15.316,478,49.68848607,4,61,,,
15.32,478,48.27023143,4,61,,,
15.324,478,49.3107734,4,61,,,
15.328,479,57.78308773,4,61,,,
15.332,479,60.25959403,4,61,,,
15.336,479,75.66760616,4,61,,,
15.34,479,81.73620696,4,61,,,
15.344,479,37.40852832,4,61,,,
15.348,479,15.66698651,4,61,,,
15.352,479,59.68496958,4,61,,,
15.356,479,102.0257163,4,61,,,
15.36,480,128.9253581,4,61,,,
15.364,480,124.0420021,4,61,,,
15.368,480,65.995234,4,61,,,
15.372,480,27.85802949,4,61,,,
15.376,480,38.95122376,4,61,,,
15.38,480,34.04117623,4,61,,,
15.384,480,6.156847105,4,61,,,
15.388,480,-3.0236964,4,61,,,
15.392,481,-12.31624181,4,61,,,
15.396,481,-15.20296528,4,61,,,
15.4,481,6.535402993,4,61,,,
15.404,481,10.38673363,4,61,,,
15.408,481,4.160718042,4,61,,,
15.412,481,24.77747296,4,61,,,
15.416,481,45.1483173,4,61,,,
15.42,481,71.43004336,4,61,,,
15.424,482,98.28694039,4,61,,,
15.428,482,88.74727276,4,61,,,
15.432,482,36.76965748,4,61,,,
15.436,482,15.77651988,4,61,,,
15.44,482,44.96128059,4,61,,,
15.444,482,62.93987406,4,61,,,
15.448,482,82.77683666,4,61,,,
15.452,482,87.44598172,4,61,,,
15.456,483,57.82283404,4,61,,,
15.46,483,45.69244394,4,61,,,
15.464,483,56.47468961,4,61,,,
15.468,483,59.01112077,4,61,,,
15.472,483,29.28673165,4,61,,,
15.476,483,29.17497204,4,61,,,
15.48,483,98.06337548,4,61,,,
15.484,483,133.1122845,4,61,,,
15.488,484,115.3419446,4,61,,,
15.492,484,78.72432541,4,61,,,
15.496,484,32.6901289,4,61,,,
15.5,484,11.24235935,4,61,,,
15.504,484,0.464912884,4,61,,,
15.508,484,-22.88382836,4,61,,,
15.512,484,-27.44025448,4,61,,,
15.516,484,-28.26955739,4,61,,,
15.52,485,-27.02506305,4,61,,,
15.524,485,2.145962075,4,61,,,
15.528,485,36.16385905,4,61,,,
15.532,485,33.60547708,4,61,,,
15.536,485,9.944381677,4,61,,,
15.54,485,-22.17669231,4,61,,,
15.544,485,-65.82203855,4,61,,,
15.548,485,-79.29459954,4,61,,,
15.552,486,-44.73351592,4,61,,,
15.556,486,14.53400727,4,61,,,
15.56,486,52.5920457,4,61,,,
15.564,486,39.58714034,4,61,,,
15.568,486,15.69937014,4,61,,,
15.572,486,15.0467666,4,61,,,
15.576,486,30.74913585,4,61,,,
15.58,486,51.11532637,4,61,,,
15.584,487,51.88922271,4,61,,,
15.588,487,52.14081126,4,61,,,
15.592,487,66.91553822,4,61,,,
15.596,487,71.14609839,4,61,,,
15.6,487,55.23481744,4,61,,,
15.604,487,49.72267788,4,61,,,
15.608,487,53.24225921,4,61,,,
15.612,487,62.44431152,4,61,,,
15.616,488,55.21465514,4,61,,,
15.62,488,16.13802176,4,61,,,
15.624,488,-11.80405346,4,61,,,
15.628,488,-16.77102216,4,61,,,
15.632,488,-19.81244658,4,61,,,
15.636,488,23.26720831,4,61,,,
15.64,488,106.6259435,4,61,,,
15.644,488,144.0135532,4,61,,,
15.648,489,146.3579278,4,61,,,
15.652,489,142.0359991,4,61,,,
15.656,489,112.321283,4,61,,,
